 18O2;(4,0);79K;51644-919 cm-1;4442 pts
      WNO        SIGMA
  51644.084     1.934E-23
  51644.146     1.508E-23
  51644.208     1.591E-23
  51644.270     1.250E-23
  51644.331     9.950E-24
  51644.393     1.500E-23
  51644.455     1.414E-23
  51644.517     5.679E-24
  51644.579     4.819E-24
  51644.641     6.035E-25
  51644.703    -4.434E-24
  51644.764    -7.789E-24
  51644.826    -1.280E-23
  51644.888    -1.447E-23
  51644.950    -1.366E-23
  51645.012    -6.200E-24
  51645.074     1.305E-24
  51645.136     4.644E-24
  51645.197     7.148E-24
  51645.259     2.924E-24
  51645.321     1.227E-24
  51645.383    -4.684E-25
  51645.445    -8.003E-24
  51645.507    -6.356E-24
  51645.569    -5.542E-24
  51645.630    -8.894E-24
  51645.692    -1.307E-23
  51645.754    -9.765E-24
  51645.816    -3.950E-24
  51645.878     6.933E-24
  51645.940     1.536E-23
  51646.002     2.640E-23
  51646.063     2.382E-23
  51646.125     1.700E-23
  51646.187     9.364E-24
  51646.249    -1.579E-24
  51646.311    -1.243E-23
  51646.373    -2.073E-23
  51646.435    -2.240E-23
  51646.496    -1.581E-23
  51646.558    -1.334E-23
  51646.620    -1.004E-23
  51646.682    -7.561E-24
  51646.744    -7.580E-24
  51646.806    -6.766E-24
  51646.868    -3.447E-24
  51646.929     3.237E-24
  51646.991     7.424E-24
  51647.053     1.247E-23
  51647.115     1.330E-23
  51647.177     1.328E-23
  51647.239     1.835E-23
  51647.301     2.088E-23
  51647.363     1.322E-23
  51647.424     8.131E-24
  51647.486     4.742E-24
  51647.548    -3.140E-25
  51647.610    -5.352E-24
  51647.672    -2.028E-24
  51647.734     8.876E-24
  51647.796     1.647E-23
  51647.857     2.838E-23
  51647.919     3.695E-23
  51647.981     4.125E-23
  51648.043     3.778E-23
  51648.105     3.088E-23
  51648.167     2.487E-23
  51648.229     1.888E-23
  51648.290     1.886E-23
  51648.352     2.481E-23
  51648.414     3.680E-23
  51648.476     5.151E-23
  51648.538     5.847E-23
  51648.600     4.799E-23
  51648.662     4.017E-23
  51648.723     3.498E-23
  51648.785     2.041E-23
  51648.847     8.525E-24
  51648.909     6.819E-24
  51648.971     6.799E-24
  51649.033     6.780E-24
  51649.095     5.076E-24
  51649.156     5.056E-24
  51649.218     8.355E-25
  51649.280    -2.536E-24
  51649.342     7.964E-25
  51649.404     2.456E-24
  51649.466     2.436E-24
  51649.528    -1.777E-24
  51649.590    -1.796E-24
  51649.651    -3.490E-24
  51649.713    -6.850E-24
  51649.775    -6.870E-24
  51649.837    -7.723E-24
  51649.899    -6.074E-24
  51649.961    -5.259E-24
  51650.023    -6.948E-24
  51650.084    -6.968E-24
  51650.146    -2.963E-25
  51650.208     3.042E-24
  51650.270     2.182E-24
  51650.332     2.163E-24
  51650.394     4.642E-25
  51650.456     4.447E-25
  51650.517     2.944E-24
  51650.579     2.085E-24
  51650.641     4.587E-24
  51650.703     1.640E-23
  51650.765     3.090E-23
  51650.827     4.208E-23
  51650.889     4.033E-23
  51650.951     2.912E-23
  51651.012     1.461E-23
  51651.074     9.510E-24
  51651.136     4.431E-24
  51651.198     1.889E-24
  51651.260     1.199E-23
  51651.322     1.366E-23
  51651.384     9.908E-25
  51651.445    -4.892E-24
  51651.507    -1.158E-23
  51651.569    -1.160E-23
  51651.631    -4.951E-24
  51651.693     3.414E-24
  51651.755     6.763E-24
  51651.817     5.058E-24
  51651.879     3.355E-24
  51651.940    -2.539E-24
  51652.002    -3.396E-24
  51652.064    -5.088E-24
  51652.126    -3.435E-24
  51652.188     3.257E-24
  51652.250     4.079E-24
  51652.312     2.378E-24
  51652.373     8.255E-24
  51652.435     1.501E-23
  51652.497     1.075E-23
  51652.559     5.666E-24
  51652.621     1.440E-24
  51652.683    -7.789E-24
  51652.745    -2.026E-23
  51652.807    -2.194E-23
  51652.868    -7.847E-24
  51652.930     3.864E-24
  51652.992     8.904E-24
  51653.054     6.352E-24
  51653.116     8.865E-24
  51653.178     2.945E-24
  51653.240     2.925E-24
  51653.301     1.219E-23
  51653.363     1.471E-23
  51653.425     1.809E-23
  51653.487     2.661E-23
  51653.549     3.087E-23
  51653.611     2.742E-23
  51653.673     2.826E-23
  51653.735     2.824E-23
  51653.796     2.138E-23
  51653.858     2.307E-23
  51653.920     2.134E-23
  51653.982     1.113E-23
  51654.044     8.571E-24
  51654.106     1.194E-23
  51654.168     1.446E-23
  51654.230     1.190E-23
  51654.291     5.961E-24
  51654.353     2.573E-24
  51654.415     8.724E-25
  51654.477     1.310E-26
  51654.539    -1.684E-24
  51654.601    -6.725E-24
  51654.663    -1.008E-23
  51654.724    -7.599E-24
  51654.786    -1.012E-23
  51654.848    -8.473E-24
  51654.910     1.556E-24
  51654.972     4.903E-24
  51655.034    -4.354E-24
  51655.096    -1.521E-23
  51655.158    -2.185E-23
  51655.219    -2.105E-23
  51655.281    -1.028E-23
  51655.343     5.790E-25
  51655.405     9.832E-24
  51655.467     1.235E-23
  51655.529     1.064E-23
  51655.591     1.062E-23
  51655.653     1.060E-23
  51655.714     1.143E-23
  51655.776     1.480E-23
  51655.838     6.316E-24
  51655.900    -4.369E-25
  51655.962    -4.564E-25
  51656.024     1.204E-24
  51656.086     1.131E-23
  51656.148     1.214E-23
  51656.209     1.042E-23
  51656.271     1.719E-23
  51656.333     1.973E-23
  51656.395     1.886E-23
  51656.457     1.884E-23
  51656.519     7.789E-24
  51656.581    -6.521E-25
  51656.642     1.681E-25
  51656.704    -2.369E-24
  51656.766    -7.108E-25
  51656.828     9.382E-24
  51656.890     1.445E-23
  51656.952     1.698E-23
  51657.014     1.526E-23
  51657.076     9.303E-24
  51657.137     8.518E-25
  51657.199     8.322E-25
  51657.261     8.126E-25
  51657.323    -4.723E-26
  51657.385    -5.097E-24
  51657.447    -1.765E-24
  51657.509    -1.059E-25
  51657.571    -3.481E-24
  51657.632    -1.435E-23
  51657.694    -2.183E-23
  51657.756    -1.522E-23
  51657.818    -5.234E-24
  51657.880     2.299E-24
  51657.942     8.184E-24
  51658.004     4.787E-24
  51658.066     4.767E-24
  51658.127     8.125E-24
  51658.189     3.043E-24
  51658.251    -6.208E-24
  51658.313    -8.734E-24
  51658.375    -9.589E-24
  51658.437     3.807E-24
  51658.499     1.394E-23
  51658.561     1.392E-23
  51658.622     1.645E-23
  51658.684     1.558E-23
  51658.746     1.047E-23
  51658.808     1.164E-24
  51658.870    -3.893E-24
  51658.932    -4.750E-24
  51658.994    -3.094E-24
  51659.056    -2.274E-24
  51659.117    -3.971E-24
  51659.179    -3.990E-24
  51659.241    -5.685E-24
  51659.303    -1.072E-23
  51659.365    -1.240E-23
  51659.427    -1.575E-23
  51659.489    -1.577E-23
  51659.551    -8.291E-24
  51659.612    -2.451E-24
  51659.674    -3.309E-24
  51659.736     2.947E-26
  51659.798    -8.304E-25
  51659.860    -5.881E-24
  51659.922    -1.008E-23
  51659.984    -5.920E-24
  51660.046     3.298E-24
  51660.107     7.498E-24
  51660.169     4.102E-24
  51660.231     7.136E-25
  51660.293     9.978E-24
  51660.355     1.590E-23
  51660.417     1.588E-23
  51660.479     9.072E-24
  51660.541    -1.065E-24
  51660.603    -1.029E-23
  51660.664    -1.031E-23
  51660.726    -5.318E-24
  51660.788     1.379E-24
  51660.850    -1.163E-24
  51660.912     3.024E-24
  51660.974     9.762E-24
  51661.036     1.398E-23
  51661.098     2.078E-23
  51661.159     2.332E-23
  51661.221     1.989E-23
  51661.283     1.391E-23
  51661.345     1.134E-23
  51661.407     4.553E-24
  51661.469     2.847E-24
  51661.531     7.048E-24
  51661.593     1.296E-23
  51661.654     1.975E-23
  51661.716     2.657E-23
  51661.778     2.056E-23
  51661.840     7.795E-24
  51661.902     3.553E-24
  51661.964     9.449E-24
  51662.026     1.537E-23
  51662.088     1.026E-23
  51662.149     9.476E-25
  51662.211     1.770E-24
  51662.273     6.706E-26
  51662.335    -4.989E-24
  51662.397    -2.493E-24
  51662.459     3.377E-24
  51662.521     8.426E-24
  51662.583     8.406E-24
  51662.645     4.161E-24
  51662.706    -9.109E-25
  51662.768    -4.289E-24
  51662.830    -6.821E-24
  51662.892    -5.166E-24
  51662.954    -1.830E-24
  51663.016     2.357E-24
  51663.078     5.713E-24
  51663.140     1.417E-23
  51663.201     1.926E-23
  51663.263     1.924E-23
  51663.325     1.411E-23
  51663.387     3.926E-24
  51663.449     3.907E-24
  51663.511    -2.846E-24
  51663.573    -2.865E-24
  51663.635     4.692E-24
  51663.697     8.054E-24
  51663.758     7.188E-24
  51663.820     9.708E-24
  51663.882     1.649E-23
  51663.944     1.732E-23
  51664.006     8.802E-24
  51664.068     1.182E-24
  51664.130    -6.396E-24
  51664.192    -1.143E-23
  51664.253    -1.478E-23
  51664.315    -2.062E-23
  51664.377    -2.725E-23
  51664.439    -2.644E-23
  51664.501    -2.067E-23
  51664.563    -1.986E-23
  51664.625    -1.822E-23
  51664.687    -1.741E-23
  51664.749    -1.826E-23
  51664.810    -2.160E-23
  51664.872    -2.245E-23
  51664.934    -1.915E-23
  51664.996    -1.002E-23
  51665.058    -7.527E-24
  51665.120     8.485E-25
  51665.182     7.583E-24
  51665.244     1.605E-23
  51665.305     1.945E-23
  51665.367     2.285E-23
  51665.429     2.626E-23
  51665.491     2.195E-23
  51665.553     1.596E-23
  51665.615     2.377E-24
  51665.677    -4.371E-24
  51665.739    -4.391E-24
  51665.801    -3.571E-24
  51665.862    -5.269E-24
  51665.924    -9.474E-24
  51665.986    -1.033E-23
  51666.048    -1.118E-23
  51666.110    -1.454E-23
  51666.172    -1.289E-23
  51666.234    -1.541E-23
  51666.296    -1.210E-23
  51666.358    -7.102E-24
  51666.419    -9.631E-24
  51666.481    -1.715E-23
  51666.543    -1.883E-23
  51666.605    -2.051E-23
  51666.667    -2.219E-23
  51666.729    -1.889E-23
  51666.791    -1.559E-23
  51666.853    -1.394E-23
  51666.915    -1.479E-23
  51666.976    -1.398E-23
  51667.038    -7.317E-24
  51667.100     1.063E-24
  51667.162     6.955E-24
  51667.224     1.024E-24
  51667.286     1.620E-25
  51667.348     2.671E-24
  51667.410     4.340E-24
  51667.472     6.011E-24
  51667.533     3.456E-24
  51667.595     2.593E-24
  51667.657     4.262E-24
  51667.719     5.087E-24
  51667.781     1.270E-23
  51667.843     2.035E-23
  51667.905     1.948E-23
  51667.967     1.604E-23
  51668.028     1.347E-23
  51668.090     1.345E-23
  51668.152     1.513E-23
  51668.214     1.426E-23
  51668.276     6.602E-24
  51668.338     1.514E-24
  51668.400    -7.749E-24
  51668.462    -1.278E-23
  51668.524    -1.697E-23
  51668.585    -1.199E-23
  51668.647    -5.313E-24
  51668.709    -2.893E-25
  51668.771     8.987E-24
  51668.833     1.321E-23
  51668.895     4.714E-24
  51668.957    -2.892E-24
  51669.019    -2.911E-24
  51669.081     8.889E-24
  51669.142     2.165E-23
  51669.204     3.108E-23
  51669.266     3.279E-23
  51669.328     2.932E-23
  51669.390     2.500E-23
  51669.452     1.813E-23
  51669.514     1.045E-23
  51669.576     1.121E-24
  51669.638    -8.979E-24
  51669.700    -1.484E-23
  51669.761    -9.855E-24
  51669.823    -2.326E-24
  51669.885    -6.623E-25
  51669.947     1.003E-24
  51670.009     7.746E-24
  51670.071     1.879E-23
  51670.133     2.219E-23
  51670.195     1.363E-23
  51670.257     5.128E-24
  51670.318    -7.997E-25
  51670.380    -9.214E-24
  51670.442    -1.508E-23
  51670.504    -1.760E-23
  51670.566    -2.508E-23
  51670.628    -2.344E-23
  51670.690    -1.599E-23
  51670.752    -1.518E-23
  51670.814    -1.686E-23
  51670.875    -1.688E-23
  51670.937    -1.607E-23
  51670.999    -1.775E-23
  51671.061    -1.694E-23
  51671.123    -1.279E-23
  51671.185    -1.198E-23
  51671.247    -1.450E-23
  51671.309    -1.535E-23
  51671.371    -1.120E-23
  51671.432    -6.196E-24
  51671.494     3.890E-24
  51671.556     9.800E-24
  51671.618     9.781E-24
  51671.680     8.912E-24
  51671.742     1.277E-24
  51671.804    -1.271E-24
  51671.866    -2.974E-24
  51671.928    -4.679E-25
  51671.990     2.887E-24
  51672.051     8.794E-24
  51672.113     1.558E-23
  51672.175     2.583E-23
  51672.237     3.444E-23
  51672.299     3.442E-23
  51672.361     2.836E-23
  51672.423     1.378E-23
  51672.485     7.809E-24
  51672.547     1.034E-23
  51672.608     8.618E-24
  51672.670     1.030E-23
  51672.732     1.880E-23
  51672.794     1.451E-23
  51672.856     1.768E-24
  51672.918    -6.668E-24
  51672.980    -1.171E-23
  51673.042    -1.173E-23
  51673.104    -1.259E-23
  51673.165    -1.344E-23
  51673.227    -1.763E-23
  51673.289    -2.180E-23
  51673.351    -2.679E-23
  51673.413    -3.505E-23
  51673.475    -3.671E-23
  51673.537    -3.262E-23
  51673.599    -2.107E-23
  51673.661     6.684E-25
  51673.723     1.592E-23
  51673.784     2.018E-23
  51673.846     2.444E-23
  51673.908     2.614E-23
  51673.970     1.414E-23
  51674.032     6.470E-24
  51674.094     2.219E-24
  51674.156     3.045E-24
  51674.218    -2.879E-24
  51674.280    -1.463E-23
  51674.342    -2.214E-23
  51674.403    -2.216E-23
  51674.465    -1.719E-23
  51674.527    -1.137E-23
  51674.589    -7.198E-24
  51674.651    -1.558E-23
  51674.713    -2.557E-23
  51674.775    -2.144E-23
  51674.837    -1.647E-23
  51674.899    -1.483E-23
  51674.960    -5.637E-24
  51675.022     1.925E-24
  51675.084     1.123E-23
  51675.146     1.547E-23
  51675.208     1.289E-23
  51675.270     7.773E-24
  51675.332     2.671E-24
  51675.394     3.497E-24
  51675.456     7.714E-24
  51675.518     1.024E-23
  51675.579     8.523E-24
  51675.641     3.419E-24
  51675.703    -4.192E-24
  51675.765    -5.053E-24
  51675.827    -1.706E-24
  51675.889     4.186E-24
  51675.951     8.405E-24
  51676.013     1.434E-23
  51676.075     1.859E-23
  51676.137     1.857E-23
  51676.198     1.684E-23
  51676.260     1.171E-23
  51676.322     1.254E-23
  51676.384     1.252E-23
  51676.446     1.335E-23
  51676.508     1.418E-23
  51676.570     1.161E-23
  51676.632     1.413E-24
  51676.694    -1.122E-23
  51676.756    -1.375E-23
  51676.817    -9.583E-24
  51676.879    -8.764E-24
  51676.941    -1.046E-23
  51677.003    -1.966E-23
  51677.065    -1.468E-23
  51677.127    -1.136E-23
  51677.189    -8.863E-24
  51677.251    -5.525E-24
  51677.313     1.197E-24
  51677.375     2.023E-24
  51677.436    -5.584E-24
  51677.498    -9.799E-24
  51677.560    -6.463E-24
  51677.622    -3.960E-24
  51677.684    -7.342E-24
  51677.746    -9.878E-24
  51677.808    -7.382E-24
  51677.870    -9.917E-24
  51677.932    -8.260E-24
  51677.994     1.826E-24
  51678.055     8.586E-24
  51678.117     1.623E-23
  51678.179     1.707E-23
  51678.241     1.023E-23
  51678.303     2.573E-24
  51678.365     8.627E-25
  51678.427     8.468E-24
  51678.489     1.356E-23
  51678.551     1.781E-23
  51678.613     2.293E-23
  51678.674     1.691E-23
  51678.736     4.975E-24
  51678.798    -4.334E-24
  51678.860    -1.442E-23
  51678.922    -2.359E-23
  51678.984    -2.527E-23
  51679.046    -2.280E-23
  51679.108    -1.783E-23
  51679.170    -1.368E-23
  51679.232    -5.313E-24
  51679.294     7.343E-24
  51679.355     1.584E-23
  51679.417     1.839E-23
  51679.479     1.495E-23
  51679.541     2.092E-23
  51679.603     3.469E-23
  51679.665     4.337E-23
  51679.727     4.947E-23
  51679.789     4.857E-23
  51679.851     4.418E-23
  51679.913     3.027E-23
  51679.974     1.394E-23
  51680.036     3.715E-24
  51680.098     1.157E-24
  51680.160     4.523E-24
  51680.222     1.130E-23
  51680.284     1.384E-23
  51680.346     1.041E-23
  51680.408     6.140E-24
  51680.470    -2.338E-24
  51680.532    -1.244E-23
  51680.594    -1.580E-23
  51680.655    -2.082E-23
  51680.717    -2.582E-23
  51680.779    -2.998E-23
  51680.841    -3.165E-23
  51680.903    -3.414E-23
  51680.965    -2.507E-23
  51681.027    -5.884E-24
  51681.089     1.358E-23
  51681.151     2.041E-23
  51681.213     2.468E-23
  51681.274     2.037E-23
  51681.336     1.607E-23
  51681.398     1.007E-23
  51681.460     3.262E-24
  51681.522    -2.673E-24
  51681.584    -7.742E-24
  51681.646    -6.922E-24
  51681.708    -1.044E-24
  51681.770     4.011E-24
  51681.832     7.385E-24
  51681.894     4.819E-24
  51681.955    -2.787E-25
  51682.017    -1.143E-24
  51682.079    -3.181E-25
  51682.141    -1.182E-24
  51682.203     2.179E-24
  51682.265     4.701E-24
  51682.327     1.404E-23
  51682.389     1.659E-23
  51682.451     1.742E-23
  51682.513     1.228E-23
  51682.575     3.755E-24
  51682.636    -5.554E-24
  51682.698    -6.415E-24
  51682.760    -1.379E-24
  51682.822    -2.243E-24
  51682.884    -3.106E-24
  51682.946    -6.494E-24
  51683.008    -1.490E-23
  51683.070    -1.992E-23
  51683.132    -1.577E-23
  51683.194    -5.732E-24
  51683.256    -6.922E-25
  51683.317    -9.133E-24
  51683.379    -2.501E-23
  51683.441    -3.742E-23
  51683.503    -4.563E-23
  51683.565    -3.499E-23
  51683.627    -2.093E-23
  51683.689    -1.845E-23
  51683.751    -1.847E-23
  51683.813    -1.348E-23
  51683.875    -5.948E-24
  51683.937     7.818E-25
  51683.998     4.998E-24
  51684.060     1.415E-23
  51684.122     1.967E-23
  51684.184     2.084E-23
  51684.246     2.580E-23
  51684.308     2.642E-23
  51684.370     2.450E-23
  51684.432     1.577E-23
  51684.494     4.601E-24
  51684.556    -2.935E-24
  51684.618    -6.419E-24
  51684.679    -1.044E-23
  51684.741    -1.278E-23
  51684.803    -1.211E-23
  51684.865    -1.128E-23
  51684.927    -1.539E-23
  51684.989    -2.141E-23
  51685.051    -1.251E-23
  51685.113    -7.452E-25
  51685.175     7.795E-24
  51685.237     6.960E-24
  51685.299     4.281E-24
  51685.360    -9.677E-25
  51685.422    -4.278E-24
  51685.484    -1.514E-23
  51685.546    -1.679E-23
  51685.608    -1.188E-23
  51685.670    -1.308E-23
  51685.732    -6.578E-24
  51685.794    -9.036E-25
  51685.856     3.158E-24
  51685.918     3.157E-24
  51685.980     4.162E-24
  51686.041     7.125E-24
  51686.103     7.479E-24
  51686.165     7.501E-24
  51686.227     1.418E-23
  51686.289     1.237E-23
  51686.351     6.395E-24
  51686.413    -1.146E-24
  51686.475    -5.785E-24
  51686.537     2.138E-25
  51686.599     7.415E-24
  51686.661     7.905E-24
  51686.723     6.666E-24
  51686.784     9.106E-24
  51686.846     4.978E-24
  51686.908     3.136E-25
  51686.970     6.666E-24
  51687.032     1.281E-23
  51687.094     1.692E-23
  51687.156     1.503E-23
  51687.218     8.871E-24
  51687.280     8.537E-24
  51687.342     6.698E-24
  51687.404     1.042E-23
  51687.465     1.942E-23
  51687.527     2.215E-23
  51687.589     2.476E-23
  51687.651     2.806E-23
  51687.713     2.775E-23
  51687.775     1.844E-23
  51687.837     1.596E-23
  51687.899     1.742E-23
  51687.961     1.142E-23
  51688.023     6.419E-24
  51688.085     5.706E-24
  51688.147     1.010E-23
  51688.208     2.097E-23
  51688.270     2.716E-23
  51688.332     2.158E-23
  51688.394     8.589E-24
  51688.456    -7.338E-25
  51688.518     7.268E-24
  51688.580     1.958E-23
  51688.642     2.914E-23
  51688.704     3.512E-23
  51688.766     3.770E-23
  51688.828     3.454E-23
  51688.890     1.680E-23
  51688.951     9.212E-24
  51689.013     7.395E-24
  51689.075     1.406E-23
  51689.137     1.811E-23
  51689.199     2.233E-23
  51689.261     3.026E-23
  51689.323     3.556E-23
  51689.385     3.812E-23
  51689.447     3.728E-23
  51689.509     2.840E-23
  51689.571     2.398E-23
  51689.633     2.572E-23
  51689.694     2.663E-23
  51689.756     3.027E-23
  51689.818     3.803E-23
  51689.880     3.783E-23
  51689.942     3.425E-23
  51690.004     3.318E-23
  51690.066     3.192E-23
  51690.128     3.161E-23
  51690.190     2.875E-23
  51690.252     2.953E-23
  51690.314     2.537E-23
  51690.376     2.319E-23
  51690.437     2.704E-23
  51690.499     3.555E-23
  51690.561     3.944E-23
  51690.623     3.651E-23
  51690.685     3.813E-23
  51690.747     3.574E-23
  51690.809     3.193E-23
  51690.871     2.376E-23
  51690.933     1.895E-23
  51690.995     1.055E-23
  51691.057     6.315E-24
  51691.119     6.141E-24
  51691.181     5.998E-24
  51691.242     8.339E-24
  51691.304     1.309E-23
  51691.366     2.301E-23
  51691.428     3.412E-23
  51691.490     4.457E-23
  51691.552     4.556E-23
  51691.614     3.686E-23
  51691.676     2.812E-23
  51691.738     2.779E-23
  51691.800     3.079E-23
  51691.862     3.576E-23
  51691.924     4.141E-23
  51691.985     4.716E-23
  51692.047     5.530E-23
  51692.109     5.529E-23
  51692.171     5.253E-23
  51692.233     4.966E-23
  51692.295     4.234E-23
  51692.357     4.227E-23
  51692.419     4.411E-23
  51692.481     4.422E-23
  51692.543     3.748E-23
  51692.605     2.985E-23
  51692.667     2.454E-23
  51692.729     2.412E-23
  51692.790     2.901E-23
  51692.852     4.121E-23
  51692.914     5.277E-23
  51692.976     5.634E-23
  51693.038     5.195E-23
  51693.100     4.600E-23
  51693.162     3.579E-23
  51693.224     2.473E-23
  51693.286     2.072E-23
  51693.348     1.922E-23
  51693.410     1.053E-23
  51693.472    -5.847E-24
  51693.534    -1.034E-23
  51693.595    -6.397E-24
  51693.657     1.563E-23
  51693.719     4.335E-23
  51693.781     5.360E-23
  51693.843     5.540E-23
  51693.905     4.604E-23
  51693.967     3.209E-23
  51694.029     1.810E-23
  51694.091     1.204E-23
  51694.153     1.106E-23
  51694.215     1.186E-23
  51694.277     1.096E-23
  51694.339     1.244E-23
  51694.400     1.478E-23
  51694.462     1.001E-23
  51694.524     9.544E-24
  51694.586     1.038E-23
  51694.648     1.289E-23
  51694.710     1.624E-23
  51694.772     1.688E-23
  51694.834     2.086E-23
  51694.896     2.136E-23
  51694.958     2.983E-23
  51695.020     2.903E-23
  51695.082     1.698E-23
  51695.144     5.044E-24
  51695.205     1.051E-24
  51695.267     6.578E-24
  51695.329     5.061E-24
  51695.391     7.442E-25
  51695.453    -5.476E-24
  51695.515    -7.394E-24
  51695.577     3.007E-25
  51695.639     2.065E-24
  51695.701     1.932E-24
  51695.763     1.112E-23
  51695.825     1.863E-23
  51695.887     2.637E-23
  51695.949     3.083E-23
  51696.010     2.738E-23
  51696.072     2.147E-23
  51696.134     2.434E-23
  51696.196     2.705E-23
  51696.258     2.103E-23
  51696.320     1.925E-23
  51696.382     1.917E-23
  51696.444     1.224E-23
  51696.506     1.088E-24
  51696.568    -1.446E-24
  51696.630     3.651E-24
  51696.692     1.118E-23
  51696.754     2.126E-23
  51696.816     2.606E-23
  51696.877     2.307E-23
  51696.939     1.933E-23
  51697.001     1.343E-23
  51697.063     1.890E-23
  51697.125     2.509E-23
  51697.187     3.134E-23
  51697.249     3.504E-23
  51697.311     3.444E-23
  51697.373     3.031E-23
  51697.435     2.795E-23
  51697.497     2.032E-23
  51697.559     9.444E-24
  51697.621     3.480E-24
  51697.683     1.532E-24
  51697.744     6.423E-24
  51697.806     1.378E-23
  51697.868     2.739E-23
  51697.930     3.800E-23
  51697.992     4.180E-23
  51698.054     3.511E-23
  51698.116     1.537E-23
  51698.178    -5.419E-24
  51698.240    -1.460E-23
  51698.302    -2.302E-23
  51698.364    -2.177E-23
  51698.426    -1.076E-23
  51698.488    -2.124E-24
  51698.550     2.319E-24
  51698.611     3.571E-24
  51698.673     1.262E-23
  51698.735     1.466E-23
  51698.797     1.642E-23
  51698.859     1.461E-23
  51698.921     1.250E-23
  51698.983     7.878E-24
  51699.045     4.266E-24
  51699.107     7.418E-24
  51699.169     1.675E-23
  51699.231     2.365E-23
  51699.293     2.699E-23
  51699.355     2.034E-23
  51699.417     1.145E-23
  51699.478    -5.309E-26
  51699.540    -1.692E-24
  51699.602     1.490E-24
  51699.664     4.662E-24
  51699.726     6.155E-24
  51699.788     4.056E-24
  51699.850    -5.137E-25
  51699.912     1.160E-24
  51699.974     2.123E-24
  51700.036    -7.770E-24
  51700.098    -1.709E-23
  51700.160    -1.482E-23
  51700.222    -5.746E-24
  51700.284     6.037E-24
  51700.345     1.372E-23
  51700.407     2.177E-23
  51700.469     2.468E-23
  51700.531     2.483E-23
  51700.593     1.949E-23
  51700.655     1.244E-23
  51700.717     8.256E-24
  51700.779     6.911E-25
  51700.841    -1.068E-24
  51700.903     4.920E-24
  51700.965     9.227E-24
  51701.027     7.307E-24
  51701.089     2.840E-24
  51701.151    -3.169E-24
  51701.213    -1.326E-24
  51701.274     1.549E-24
  51701.336    -1.507E-24
  51701.398    -8.077E-24
  51701.460    -1.251E-23
  51701.522    -1.727E-23
  51701.584    -1.290E-23
  51701.646    -1.567E-24
  51701.708     6.713E-24
  51701.770     1.621E-23
  51701.832     2.083E-23
  51701.894     1.968E-23
  51701.956     1.666E-23
  51702.018     1.340E-23
  51702.080     3.957E-24
  51702.142    -4.835E-24
  51702.203    -1.840E-24
  51702.265     2.255E-25
  51702.327     3.287E-24
  51702.389     8.339E-24
  51702.451    -8.148E-25
  51702.513    -1.732E-23
  51702.575    -2.768E-23
  51702.637    -2.556E-23
  51702.699    -1.540E-23
  51702.761    -4.606E-24
  51702.823     2.476E-24
  51702.885     7.861E-24
  51702.947     4.220E-24
  51703.009     5.736E-24
  51703.071     8.838E-24
  51703.133     7.041E-24
  51703.194     4.190E-25
  51703.256    -4.464E-24
  51703.318    -1.114E-23
  51703.380    -6.923E-24
  51703.442    -3.395E-24
  51703.504    -3.734E-24
  51703.566    -1.547E-24
  51703.628     3.995E-24
  51703.690     7.211E-26
  51703.752    -5.847E-24
  51703.814    -7.721E-24
  51703.876    -1.235E-23
  51703.938    -1.115E-23
  51704.000     3.618E-24
  51704.062     4.912E-24
  51704.123     2.097E-24
  51704.185     1.219E-23
  51704.247     1.902E-23
  51704.309     2.164E-23
  51704.371     2.514E-23
  51704.433     2.617E-23
  51704.495     2.376E-23
  51704.557     1.949E-23
  51704.619     1.250E-23
  51704.681     4.826E-24
  51704.743     2.431E-24
  51704.805     4.976E-24
  51704.867     5.848E-24
  51704.929     8.646E-24
  51704.991     6.203E-24
  51705.053    -2.532E-24
  51705.114    -8.741E-24
  51705.176    -6.213E-24
  51705.238    -4.496E-24
  51705.300    -1.401E-24
  51705.362    -1.872E-24
  51705.424    -1.291E-24
  51705.486     4.725E-24
  51705.548     1.253E-23
  51705.610     5.683E-24
  51705.672     8.207E-24
  51705.734     1.148E-23
  51705.796     9.667E-24
  51705.858     6.314E-24
  51705.920     4.513E-24
  51705.982     1.054E-24
  51706.044     2.955E-24
  51706.106     4.697E-24
  51706.167    -4.724E-24
  51706.229    -9.555E-24
  51706.291    -3.278E-24
  51706.353    -6.294E-25
  51706.415     3.541E-24
  51706.477     5.192E-24
  51706.539     6.000E-24
  51706.601     5.060E-24
  51706.663    -1.089E-24
  51706.725     4.386E-25
  51706.787    -1.156E-24
  51706.849    -3.437E-24
  51706.911    -5.612E-24
  51706.973    -5.974E-24
  51707.035    -4.648E-24
  51707.097    -2.709E-24
  51707.158    -5.363E-24
  51707.220    -4.123E-24
  51707.282    -2.142E-24
  51707.344    -5.073E-24
  51707.406    -3.581E-24
  51707.468    -2.951E-24
  51707.530    -1.155E-23
  51707.592    -1.147E-23
  51707.654    -1.722E-23
  51707.716    -2.135E-23
  51707.778    -1.812E-23
  51707.840    -1.060E-23
  51707.902    -6.345E-24
  51707.964    -2.186E-24
  51708.026     8.046E-24
  51708.088     5.707E-24
  51708.150     1.660E-24
  51708.212    -2.507E-24
  51708.273    -1.105E-23
  51708.335    -1.461E-23
  51708.397    -1.486E-23
  51708.459    -8.326E-24
  51708.521     7.790E-24
  51708.583     2.057E-23
  51708.645     2.726E-23
  51708.707     2.969E-23
  51708.769     2.440E-23
  51708.831     1.572E-23
  51708.893     7.071E-24
  51708.955     1.810E-24
  51709.017    -8.996E-25
  51709.079     7.694E-25
  51709.141    -5.106E-24
  51709.203    -9.413E-24
  51709.265    -1.922E-24
  51709.326    -1.952E-24
  51709.388    -1.105E-24
  51709.450     4.991E-24
  51709.512     9.571E-24
  51709.574     4.707E-24
  51709.636     3.852E-25
  51709.698    -5.830E-24
  51709.760    -6.098E-24
  51709.822    -1.118E-24
  51709.884     8.367E-24
  51709.946     1.292E-23
  51710.008     8.073E-24
  51710.070    -5.123E-24
  51710.132    -1.470E-23
  51710.194    -2.453E-23
  51710.256    -2.971E-23
  51710.318    -3.154E-23
  51710.380    -3.081E-23
  51710.441    -2.528E-23
  51710.503    -1.729E-23
  51710.565    -7.434E-24
  51710.627    -2.530E-24
  51710.689    -4.206E-24
  51710.751    -9.873E-24
  51710.813    -1.040E-23
  51710.875    -5.149E-24
  51710.937     2.521E-24
  51710.999    -1.840E-24
  51711.061    -9.683E-24
  51711.123    -8.256E-24
  51711.185    -4.220E-24
  51711.247    -3.495E-24
  51711.309     3.196E-24
  51711.371     1.775E-23
  51711.433     2.040E-23
  51711.495     1.687E-23
  51711.557     1.152E-23
  51711.618     5.387E-24
  51711.680     6.024E-24
  51711.742     5.941E-24
  51711.804     7.974E-24
  51711.866     2.519E-24
  51711.928    -4.709E-24
  51711.990    -1.203E-23
  51712.052    -1.612E-23
  51712.114    -1.533E-23
  51712.176    -1.710E-23
  51712.238    -1.301E-23
  51712.300    -1.246E-23
  51712.362    -1.137E-23
  51712.424    -5.898E-24
  51712.486     7.651E-24
  51712.548     2.941E-23
  51712.610     3.755E-23
  51712.672     2.558E-23
  51712.734     6.597E-24
  51712.795    -5.388E-24
  51712.857    -1.548E-23
  51712.919    -1.627E-23
  51712.981    -9.458E-24
  51713.043    -5.168E-24
  51713.105    -1.283E-23
  51713.167    -1.559E-23
  51713.229    -1.836E-23
  51713.291    -2.428E-23
  51713.353    -1.586E-23
  51713.415    -4.868E-24
  51713.477    -9.168E-24
  51713.539    -1.091E-23
  51713.601    -5.623E-24
  51713.663    -1.210E-23
  51713.725    -1.700E-23
  51713.787    -1.698E-23
  51713.849    -1.295E-23
  51713.911    -6.422E-24
  51713.973    -1.454E-24
  51714.034    -9.235E-24
  51714.096    -1.873E-23
  51714.158    -1.220E-23
  51714.220    -1.238E-23
  51714.282    -1.505E-23
  51714.344    -1.349E-23
  51714.406    -4.361E-24
  51714.468     7.383E-24
  51714.530     8.037E-24
  51714.592     1.396E-23
  51714.654     1.939E-23
  51714.716     2.781E-23
  51714.778     3.456E-23
  51714.840     2.897E-23
  51714.902     2.246E-23
  51714.964     1.400E-23
  51715.026     1.875E-25
  51715.088    -1.617E-23
  51715.150    -1.986E-23
  51715.212    -1.420E-23
  51715.273    -1.099E-23
  51715.335    -6.132E-24
  51715.397    -8.161E-24
  51715.459    -1.087E-23
  51715.521    -2.295E-24
  51715.583     1.441E-24
  51715.645     2.597E-24
  51715.707     6.091E-24
  51715.769     1.201E-23
  51715.831     1.360E-23
  51715.893     8.275E-24
  51715.955     5.513E-24
  51716.017    -2.235E-24
  51716.079    -4.050E-25
  51716.141     7.506E-24
  51716.203     8.550E-24
  51716.265     8.159E-25
  51716.327    -1.305E-23
  51716.389    -1.773E-23
  51716.451    -1.998E-23
  51716.513    -2.283E-23
  51716.574    -2.096E-23
  51716.636    -8.674E-24
  51716.698    -3.082E-24
  51716.760     5.035E-24
  51716.822     1.902E-23
  51716.884     2.672E-23
  51716.946     1.784E-23
  51717.008     1.360E-23
  51717.070     1.482E-23
  51717.132     8.970E-24
  51717.194     1.115E-24
  51717.256     3.461E-24
  51717.318     9.252E-24
  51717.380     1.009E-23
  51717.442     1.375E-23
  51717.504     1.130E-23
  51717.566     1.387E-23
  51717.628     1.995E-23
  51717.690     3.310E-23
  51717.752     3.926E-23
  51717.814     3.641E-23
  51717.876     3.512E-23
  51717.937     3.457E-23
  51717.999     2.882E-23
  51718.061     1.548E-23
  51718.123     6.825E-24
  51718.185     6.925E-24
  51718.247     6.110E-24
  51718.309     5.288E-24
  51718.371     3.714E-24
  51718.433     3.988E-24
  51718.495    -9.066E-25
  51718.557    -6.846E-24
  51718.619    -1.114E-23
  51718.681    -1.531E-23
  51718.743    -7.812E-24
  51718.805    -1.938E-24
  51718.867     6.721E-24
  51718.929     1.632E-23
  51718.991     2.003E-23
  51719.053     1.771E-23
  51719.115     9.958E-24
  51719.177     3.710E-24
  51719.239     1.065E-24
  51719.301     3.765E-25
  51719.362     3.036E-24
  51719.424    -2.877E-24
  51719.486    -1.203E-24
  51719.548     1.925E-24
  51719.610     2.329E-24
  51719.672     4.534E-24
  51719.734     7.068E-24
  51719.796     1.416E-23
  51719.858     1.963E-23
  51719.920     1.977E-23
  51719.982     1.799E-23
  51720.044     1.101E-23
  51720.106     5.821E-24
  51720.168     6.851E-24
  51720.230     9.556E-24
  51720.292     1.036E-23
  51720.354     8.658E-24
  51720.416     1.118E-23
  51720.478     1.347E-23
  51720.540     2.179E-23
  51720.602     3.128E-23
  51720.664     2.874E-23
  51720.726     1.497E-23
  51720.788     1.246E-24
  51720.849    -6.553E-24
  51720.911    -1.414E-23
  51720.973    -2.223E-23
  51721.035    -2.283E-23
  51721.097    -1.859E-23
  51721.159    -1.444E-23
  51721.221    -6.924E-24
  51721.283    -2.029E-24
  51721.345     5.427E-24
  51721.407     1.298E-23
  51721.469     1.509E-23
  51721.531     2.142E-23
  51721.593     1.756E-23
  51721.655     1.402E-23
  51721.717     1.180E-23
  51721.779     3.720E-24
  51721.841    -6.887E-24
  51721.903    -1.338E-23
  51721.965    -1.418E-23
  51722.027    -1.332E-23
  51722.089    -1.762E-23
  51722.151    -1.693E-23
  51722.213     6.358E-25
  51722.275     1.069E-23
  51722.337     8.761E-24
  51722.399     8.705E-24
  51722.460     5.272E-24
  51722.522     7.695E-25
  51722.584    -3.700E-24
  51722.646    -9.741E-24
  51722.708    -1.985E-23
  51722.770    -2.295E-23
  51722.832    -2.436E-23
  51722.894    -2.017E-23
  51722.956    -5.991E-24
  51723.018     4.966E-24
  51723.080     8.619E-24
  51723.142     1.135E-23
  51723.204     2.885E-24
  51723.266    -1.217E-23
  51723.328    -1.688E-23
  51723.390    -1.260E-23
  51723.452    -1.083E-25
  51723.514     1.066E-23
  51723.576     1.474E-23
  51723.638     1.472E-23
  51723.700     1.395E-23
  51723.762     1.061E-23
  51723.824     1.157E-23
  51723.886     1.430E-23
  51723.948     1.347E-23
  51724.010     1.421E-23
  51724.072     1.325E-23
  51724.133     4.496E-24
  51724.195    -3.322E-24
  51724.257    -5.999E-24
  51724.319    -7.106E-24
  51724.381    -4.021E-24
  51724.443     5.309E-24
  51724.505     1.229E-23
  51724.567     1.847E-23
  51724.629     2.473E-23
  51724.691     3.530E-23
  51724.753     4.240E-23
  51724.815     4.589E-23
  51724.877     4.930E-23
  51724.939     5.000E-23
  51725.001     3.996E-23
  51725.063     2.662E-23
  51725.125     2.067E-23
  51725.187     1.822E-23
  51725.249     1.388E-23
  51725.311     8.619E-24
  51725.373     1.033E-23
  51725.435     1.489E-23
  51725.497     1.630E-23
  51725.559     1.328E-23
  51725.621     1.425E-23
  51725.683     1.488E-23
  51725.745     1.870E-23
  51725.807     2.147E-23
  51725.868     1.653E-23
  51725.930     9.302E-24
  51725.992     1.082E-23
  51726.054     1.093E-23
  51726.116     1.302E-23
  51726.178     2.028E-23
  51726.240     1.887E-23
  51726.302     1.729E-23
  51726.364     2.160E-23
  51726.426     2.584E-23
  51726.488     2.375E-23
  51726.550     2.704E-23
  51726.612     3.242E-23
  51726.674     3.615E-23
  51726.736     3.473E-23
  51726.798     3.321E-23
  51726.860     3.480E-23
  51726.922     3.363E-23
  51726.984     2.625E-23
  51727.046     2.412E-23
  51727.108     1.876E-23
  51727.170     1.961E-23
  51727.232     2.836E-23
  51727.294     3.817E-23
  51727.356     3.997E-23
  51727.418     3.991E-23
  51727.480     3.371E-23
  51727.542     3.085E-23
  51727.604     3.152E-23
  51727.666     3.170E-23
  51727.728     3.629E-23
  51727.789     4.109E-23
  51727.851     3.703E-23
  51727.913     3.881E-23
  51727.975     4.387E-23
  51728.037     5.341E-23
  51728.099     6.929E-23
  51728.161     8.439E-23
  51728.223     8.674E-23
  51728.285     8.552E-23
  51728.347     8.092E-23
  51728.409     7.464E-23
  51728.471     7.028E-23
  51728.533     6.415E-23
  51728.595     6.142E-23
  51728.657     5.886E-23
  51728.719     5.471E-23
  51728.781     5.736E-23
  51728.843     6.173E-23
  51728.905     7.421E-23
  51728.967     8.598E-23
  51729.029     9.505E-23
  51729.091     1.040E-22
  51729.153     1.055E-22
  51729.215     1.154E-22
  51729.277     1.244E-22
  51729.339     1.309E-22
  51729.401     1.384E-22
  51729.463     1.385E-22
  51729.525     1.313E-22
  51729.587     1.287E-22
  51729.649     1.271E-22
  51729.711     1.237E-22
  51729.773     1.220E-22
  51729.835     1.277E-22
  51729.896     1.324E-22
  51729.958     1.342E-22
  51730.020     1.342E-22
  51730.082     1.313E-22
  51730.144     1.343E-22
  51730.206     1.355E-22
  51730.268     1.280E-22
  51730.330     1.217E-22
  51730.392     1.263E-22
  51730.454     1.335E-22
  51730.516     1.378E-22
  51730.578     1.366E-22
  51730.640     1.348E-22
  51730.702     1.348E-22
  51730.764     1.356E-22
  51730.826     1.362E-22
  51730.888     1.285E-22
  51730.950     1.212E-22
  51731.012     1.140E-22
  51731.074     1.014E-22
  51731.136     9.508E-23
  51731.198     9.596E-23
  51731.260     9.498E-23
  51731.322     9.713E-23
  51731.384     9.845E-23
  51731.446     9.570E-23
  51731.508     1.000E-22
  51731.570     1.025E-22
  51731.632     1.050E-22
  51731.694     1.056E-22
  51731.756     1.032E-22
  51731.818     1.066E-22
  51731.880     1.084E-22
  51731.942     1.096E-22
  51732.004     1.016E-22
  51732.066     8.701E-23
  51732.128     8.071E-23
  51732.189     7.881E-23
  51732.251     7.850E-23
  51732.313     7.753E-23
  51732.375     7.570E-23
  51732.437     6.742E-23
  51732.499     5.480E-23
  51732.561     4.243E-23
  51732.623     3.739E-23
  51732.685     4.130E-23
  51732.747     4.856E-23
  51732.809     5.374E-23
  51732.871     4.998E-23
  51732.933     4.710E-23
  51732.995     5.414E-23
  51733.057     6.149E-23
  51733.119     6.724E-23
  51733.181     6.041E-23
  51733.243     5.509E-23
  51733.305     5.674E-23
  51733.367     5.817E-23
  51733.429     6.305E-23
  51733.491     6.195E-23
  51733.553     5.231E-23
  51733.615     4.732E-23
  51733.677     5.453E-23
  51733.739     6.636E-23
  51733.801     6.927E-23
  51733.863     6.762E-23
  51733.925     6.140E-23
  51733.987     5.233E-23
  51734.049     5.200E-23
  51734.111     5.682E-23
  51734.173     5.647E-23
  51734.235     5.753E-23
  51734.297     5.952E-23
  51734.359     6.394E-23
  51734.421     6.630E-23
  51734.483     6.233E-23
  51734.545     6.202E-23
  51734.607     6.192E-23
  51734.669     6.113E-23
  51734.731     6.046E-23
  51734.792     5.805E-23
  51734.854     5.824E-23
  51734.916     5.845E-23
  51734.978     5.231E-23
  51735.040     4.431E-23
  51735.102     3.732E-23
  51735.164     3.277E-23
  51735.226     3.514E-23
  51735.288     3.867E-23
  51735.350     4.303E-23
  51735.412     5.003E-23
  51735.474     4.801E-23
  51735.536     4.152E-23
  51735.598     3.425E-23
  51735.660     2.309E-23
  51735.722     1.666E-23
  51735.784     1.269E-23
  51735.846     1.120E-23
  51735.908     7.242E-24
  51735.970    -2.558E-24
  51736.032    -2.138E-24
  51736.094    -2.248E-24
  51736.156     8.001E-25
  51736.218     1.162E-23
  51736.280     1.533E-23
  51736.342     1.381E-23
  51736.404     1.427E-23
  51736.466     2.105E-23
  51736.528     2.637E-23
  51736.590     3.017E-23
  51736.652     2.777E-23
  51736.714     2.708E-23
  51736.776     2.617E-23
  51736.838     2.148E-23
  51736.900     1.610E-23
  51736.962     1.688E-23
  51737.024     1.412E-23
  51737.086     1.345E-23
  51737.148     1.282E-23
  51737.210     1.055E-23
  51737.272     7.340E-24
  51737.334     6.530E-24
  51737.396     8.099E-24
  51737.458     8.935E-24
  51737.520     1.161E-23
  51737.582     1.677E-23
  51737.644     1.859E-23
  51737.706     1.953E-23
  51737.768     1.535E-23
  51737.830     1.098E-23
  51737.892     1.261E-23
  51737.953     1.270E-23
  51738.015     1.535E-23
  51738.077     2.137E-23
  51738.139     2.322E-23
  51738.201     2.649E-23
  51738.263     3.757E-23
  51738.325     4.530E-23
  51738.387     4.359E-23
  51738.449     4.014E-23
  51738.511     2.879E-23
  51738.573     1.595E-23
  51738.635     8.357E-24
  51738.697     6.019E-25
  51738.759    -6.317E-25
  51738.821     5.164E-25
  51738.883     2.625E-24
  51738.945     8.831E-25
  51739.007     3.495E-24
  51739.069     1.056E-23
  51739.131     1.221E-23
  51739.193     1.352E-23
  51739.255     7.993E-24
  51739.317     3.690E-24
  51739.379    -2.834E-24
  51739.441    -3.384E-24
  51739.503     4.467E-24
  51739.565     1.498E-23
  51739.627     2.288E-23
  51739.689     2.462E-23
  51739.751     1.942E-23
  51739.813     1.864E-23
  51739.875     2.015E-23
  51739.937     1.463E-23
  51739.999     6.395E-24
  51740.061     6.938E-24
  51740.123     1.492E-23
  51740.185     1.519E-23
  51740.247     2.125E-23
  51740.309     2.650E-23
  51740.371     2.400E-23
  51740.433     2.584E-23
  51740.495     1.996E-23
  51740.557     7.073E-24
  51740.619     2.004E-24
  51740.681    -5.841E-24
  51740.743    -1.050E-23
  51740.805    -1.164E-23
  51740.867    -1.269E-23
  51740.929    -1.380E-23
  51740.991    -1.478E-23
  51741.053    -1.394E-23
  51741.115    -1.397E-23
  51741.177    -1.338E-23
  51741.239    -1.277E-23
  51741.301    -1.018E-23
  51741.363    -4.868E-24
  51741.425    -8.387E-24
  51741.487    -1.302E-23
  51741.549    -2.083E-23
  51741.611    -2.682E-23
  51741.673    -2.652E-23
  51741.735    -2.786E-23
  51741.797    -1.759E-23
  51741.859    -1.144E-23
  51741.921    -9.535E-24
  51741.983    -1.090E-23
  51742.045    -1.335E-23
  51742.107    -1.370E-23
  51742.169    -1.333E-23
  51742.230    -6.024E-24
  51742.292     7.751E-25
  51742.354     1.048E-24
  51742.416    -2.125E-24
  51742.478    -1.196E-24
  51742.540     6.588E-24
  51742.602     1.635E-23
  51742.664     1.730E-23
  51742.726     5.132E-24
  51742.788    -5.550E-25
  51742.850     4.849E-24
  51742.912     1.261E-23
  51742.974     1.002E-23
  51743.036     2.286E-24
  51743.098    -5.810E-25
  51743.160    -2.475E-24
  51743.222    -8.755E-24
  51743.284    -5.800E-24
  51743.346    -2.457E-24
  51743.408     8.037E-24
  51743.470     1.767E-23
  51743.532     1.648E-23
  51743.594     1.363E-23
  51743.656     2.153E-23
  51743.718     2.338E-23
  51743.780     1.622E-23
  51743.842     1.713E-23
  51743.904     1.722E-23
  51743.966     1.890E-23
  51744.028     1.366E-23
  51744.090     7.666E-24
  51744.152     6.111E-24
  51744.214     6.132E-24
  51744.276     7.749E-24
  51744.338     8.735E-24
  51744.400     7.146E-24
  51744.462     1.232E-23
  51744.524     9.775E-24
  51744.586    -7.513E-25
  51744.648    -5.307E-24
  51744.710    -8.893E-24
  51744.772    -1.772E-23
  51744.834    -2.269E-23
  51744.896    -2.260E-23
  51744.958    -1.937E-23
  51745.020    -1.108E-23
  51745.082    -5.781E-24
  51745.144     1.989E-24
  51745.206     1.321E-23
  51745.268     1.945E-23
  51745.330     2.234E-23
  51745.392     1.136E-23
  51745.454     4.402E-24
  51745.516    -8.980E-25
  51745.578    -9.949E-25
  51745.640     2.222E-24
  51745.702     8.179E-24
  51745.764     1.733E-23
  51745.826     1.494E-23
  51745.888     9.928E-24
  51745.950     1.426E-23
  51746.012     1.222E-23
  51746.074     1.619E-23
  51746.136     1.420E-23
  51746.198     1.063E-23
  51746.260     1.674E-23
  51746.322     1.258E-23
  51746.384     8.933E-24
  51746.446     5.184E-24
  51746.508     6.795E-24
  51746.570     4.150E-24
  51746.632     6.050E-24
  51746.694     1.035E-23
  51746.756     1.340E-23
  51746.818     1.666E-23
  51746.880     1.200E-23
  51746.942     5.018E-24
  51747.004     3.208E-24
  51747.066     9.179E-24
  51747.128     2.051E-23
  51747.190     2.568E-23
  51747.252     2.586E-23
  51747.314     2.267E-23
  51747.376     1.557E-23
  51747.438     1.371E-23
  51747.500     1.321E-23
  51747.562     1.154E-23
  51747.624     1.322E-23
  51747.686     1.235E-23
  51747.748     1.335E-23
  51747.810     1.799E-23
  51747.872     2.496E-23
  51747.934     3.159E-23
  51747.996     3.219E-23
  51748.058     3.458E-23
  51748.120     3.419E-23
  51748.182     3.334E-23
  51748.244     3.317E-23
  51748.306     3.388E-23
  51748.368     3.877E-23
  51748.430     3.740E-23
  51748.492     3.531E-23
  51748.554     3.446E-23
  51748.616     2.525E-23
  51748.678     1.609E-23
  51748.740     3.290E-24
  51748.802     1.098E-24
  51748.864    -1.086E-24
  51748.926     6.500E-25
  51748.988     2.395E-24
  51749.050     1.480E-24
  51749.112     4.610E-25
  51749.174    -5.079E-24
  51749.236    -7.917E-24
  51749.298    -8.825E-24
  51749.360    -3.185E-24
  51749.422     1.483E-24
  51749.484     5.589E-24
  51749.546     9.043E-24
  51749.608     1.341E-23
  51749.670     7.494E-24
  51749.732     6.815E-24
  51749.794     1.317E-23
  51749.856     1.264E-23
  51749.918     5.155E-24
  51749.980     7.543E-24
  51750.042     1.075E-23
  51750.104     7.322E-24
  51750.166     8.340E-24
  51750.228     1.037E-23
  51750.290     1.042E-23
  51750.352     1.809E-23
  51750.414     2.651E-23
  51750.476     2.627E-23
  51750.538     2.266E-23
  51750.600     2.509E-23
  51750.662     2.299E-23
  51750.724     1.852E-23
  51750.786     2.040E-23
  51750.848     1.967E-23
  51750.910     1.939E-23
  51750.972     2.565E-23
  51751.034     3.932E-23
  51751.096     4.881E-23
  51751.158     4.582E-23
  51751.220     2.591E-23
  51751.282     1.344E-23
  51751.344     1.233E-23
  51751.406     1.811E-23
  51751.468     2.669E-23
  51751.530     2.863E-23
  51751.592     2.254E-23
  51751.654     2.223E-23
  51751.716     2.456E-23
  51751.778     2.634E-23
  51751.840     1.877E-23
  51751.902     6.884E-24
  51751.964    -7.547E-24
  51752.026    -1.503E-23
  51752.088    -1.737E-23
  51752.150    -1.985E-23
  51752.212    -1.134E-23
  51752.274    -5.465E-24
  51752.336     4.429E-24
  51752.398     1.704E-23
  51752.460     2.220E-23
  51752.522     1.538E-23
  51752.584     7.838E-24
  51752.646     1.069E-23
  51752.708     2.137E-23
  51752.770     4.333E-23
  51752.832     5.114E-23
  51752.894     4.634E-23
  51752.956     3.461E-23
  51753.018     2.647E-23
  51753.080     1.872E-23
  51753.142     1.288E-23
  51753.204     1.040E-23
  51753.266     1.119E-23
  51753.328     9.996E-24
  51753.390     1.311E-23
  51753.452     1.745E-23
  51753.514     1.781E-23
  51753.576     1.464E-23
  51753.638     1.237E-23
  51753.700     1.697E-23
  51753.762     1.883E-23
  51753.824     1.199E-23
  51753.886    -1.118E-24
  51753.948    -2.518E-24
  51754.010    -3.867E-24
  51754.072    -4.269E-24
  51754.134     1.419E-24
  51754.196     1.168E-23
  51754.258     2.159E-23
  51754.320     3.084E-23
  51754.382     3.640E-23
  51754.444     2.868E-23
  51754.506     1.225E-23
  51754.568     6.227E-24
  51754.630     9.400E-25
  51754.692    -7.008E-25
  51754.754     2.975E-24
  51754.816     7.501E-24
  51754.878     1.008E-23
  51754.940     1.071E-23
  51755.002     2.180E-23
  51755.064     3.491E-23
  51755.126     4.054E-23
  51755.188     3.549E-23
  51755.250     3.019E-23
  51755.312     2.605E-23
  51755.374     2.088E-23
  51755.436     1.766E-23
  51755.498     2.106E-23
  51755.560     2.397E-23
  51755.622     2.920E-23
  51755.684     3.325E-23
  51755.746     3.993E-23
  51755.808     4.426E-23
  51755.870     4.617E-23
  51755.932     3.484E-23
  51755.994     2.704E-23
  51756.056     2.459E-23
  51756.118     2.139E-23
  51756.180     2.158E-23
  51756.242     1.822E-23
  51756.304     1.185E-23
  51756.366     1.125E-23
  51756.428     1.161E-23
  51756.490     1.959E-23
  51756.552     2.179E-23
  51756.614     2.953E-23
  51756.676     3.593E-23
  51756.738     4.777E-23
  51756.800     5.987E-23
  51756.862     6.101E-23
  51756.924     6.120E-23
  51756.986     5.864E-23
  51757.048     5.415E-23
  51757.110     5.147E-23
  51757.172     4.755E-23
  51757.234     3.822E-23
  51757.296     3.269E-23
  51757.358     2.802E-23
  51757.420     3.078E-23
  51757.482     3.716E-23
  51757.544     4.332E-23
  51757.606     4.589E-23
  51757.668     5.017E-23
  51757.730     5.246E-23
  51757.792     4.968E-23
  51757.854     4.620E-23
  51757.916     4.105E-23
  51757.978     3.975E-23
  51758.040     4.826E-23
  51758.102     5.455E-23
  51758.164     5.691E-23
  51758.226     5.448E-23
  51758.288     4.331E-23
  51758.350     4.145E-23
  51758.412     4.766E-23
  51758.474     5.677E-23
  51758.536     6.422E-23
  51758.598     7.607E-23
  51758.660     8.515E-23
  51758.722     7.819E-23
  51758.784     6.468E-23
  51758.846     5.722E-23
  51758.908     5.975E-23
  51758.970     6.691E-23
  51759.032     7.339E-23
  51759.094     7.671E-23
  51759.156     7.737E-23
  51759.218     8.280E-23
  51759.280     8.831E-23
  51759.342     8.840E-23
  51759.404     7.819E-23
  51759.466     8.255E-23
  51759.528     9.835E-23
  51759.591     1.089E-22
  51759.653     1.159E-22
  51759.715     1.144E-22
  51759.777     1.063E-22
  51759.839     9.980E-23
  51759.901     9.564E-23
  51759.963     9.773E-23
  51760.025     1.041E-22
  51760.087     1.089E-22
  51760.149     1.149E-22
  51760.211     1.178E-22
  51760.273     1.188E-22
  51760.335     1.216E-22
  51760.397     1.292E-22
  51760.459     1.322E-22
  51760.521     1.350E-22
  51760.583     1.311E-22
  51760.645     1.290E-22
  51760.707     1.268E-22
  51760.769     1.428E-22
  51760.831     1.611E-22
  51760.893     1.728E-22
  51760.955     1.727E-22
  51761.017     1.647E-22
  51761.079     1.607E-22
  51761.141     1.676E-22
  51761.203     1.754E-22
  51761.265     1.794E-22
  51761.327     1.811E-22
  51761.389     1.890E-22
  51761.451     1.935E-22
  51761.513     2.058E-22
  51761.575     2.260E-22
  51761.637     2.433E-22
  51761.699     2.649E-22
  51761.761     2.867E-22
  51761.823     2.929E-22
  51761.885     2.952E-22
  51761.947     3.000E-22
  51762.009     2.979E-22
  51762.071     2.979E-22
  51762.133     3.079E-22
  51762.195     3.302E-22
  51762.257     3.459E-22
  51762.319     3.468E-22
  51762.381     3.508E-22
  51762.443     3.620E-22
  51762.505     3.735E-22
  51762.567     3.827E-22
  51762.629     3.946E-22
  51762.691     4.053E-22
  51762.753     4.066E-22
  51762.815     4.102E-22
  51762.877     4.194E-22
  51762.939     4.239E-22
  51763.001     4.260E-22
  51763.063     4.272E-22
  51763.125     4.251E-22
  51763.187     4.149E-22
  51763.249     4.069E-22
  51763.311     4.046E-22
  51763.373     4.104E-22
  51763.435     4.111E-22
  51763.497     4.081E-22
  51763.559     4.043E-22
  51763.621     4.089E-22
  51763.683     4.123E-22
  51763.745     4.100E-22
  51763.807     4.009E-22
  51763.870     3.836E-22
  51763.932     3.609E-22
  51763.994     3.384E-22
  51764.056     3.283E-22
  51764.118     3.283E-22
  51764.180     3.282E-22
  51764.242     3.223E-22
  51764.304     3.103E-22
  51764.366     3.007E-22
  51764.428     2.866E-22
  51764.490     2.803E-22
  51764.552     2.743E-22
  51764.614     2.680E-22
  51764.676     2.693E-22
  51764.738     2.694E-22
  51764.800     2.680E-22
  51764.862     2.665E-22
  51764.924     2.611E-22
  51764.986     2.602E-22
  51765.048     2.488E-22
  51765.110     2.377E-22
  51765.172     2.317E-22
  51765.234     2.207E-22
  51765.296     2.197E-22
  51765.358     2.258E-22
  51765.420     2.307E-22
  51765.482     2.335E-22
  51765.544     2.363E-22
  51765.606     2.323E-22
  51765.668     2.275E-22
  51765.730     2.318E-22
  51765.792     2.401E-22
  51765.854     2.505E-22
  51765.916     2.442E-22
  51765.978     2.298E-22
  51766.040     2.179E-22
  51766.102     2.102E-22
  51766.164     2.094E-22
  51766.226     2.185E-22
  51766.288     2.264E-22
  51766.350     2.261E-22
  51766.412     2.317E-22
  51766.474     2.383E-22
  51766.536     2.350E-22
  51766.598     2.259E-22
  51766.660     2.139E-22
  51766.722     1.977E-22
  51766.784     1.816E-22
  51766.846     1.785E-22
  51766.908     1.785E-22
  51766.970     1.767E-22
  51767.033     1.721E-22
  51767.095     1.704E-22
  51767.157     1.669E-22
  51767.219     1.710E-22
  51767.281     1.729E-22
  51767.343     1.738E-22
  51767.405     1.707E-22
  51767.467     1.695E-22
  51767.529     1.655E-22
  51767.591     1.578E-22
  51767.653     1.598E-22
  51767.715     1.645E-22
  51767.777     1.605E-22
  51767.839     1.527E-22
  51767.901     1.488E-22
  51767.963     1.380E-22
  51768.025     1.236E-22
  51768.087     1.178E-22
  51768.149     1.229E-22
  51768.211     1.346E-22
  51768.273     1.450E-22
  51768.335     1.410E-22
  51768.397     1.258E-22
  51768.459     1.100E-22
  51768.521     9.815E-23
  51768.583     9.555E-23
  51768.645     1.004E-22
  51768.707     1.034E-22
  51768.769     9.519E-23
  51768.831     8.699E-23
  51768.893     9.076E-23
  51768.955     9.161E-23
  51769.017     8.781E-23
  51769.079     8.856E-23
  51769.141     8.940E-23
  51769.203     8.195E-23
  51769.265     7.638E-23
  51769.327     6.807E-23
  51769.389     6.272E-23
  51769.451     6.315E-23
  51769.513     5.708E-23
  51769.575     5.176E-23
  51769.638     4.307E-23
  51769.700     4.210E-23
  51769.762     5.150E-23
  51769.824     5.086E-23
  51769.886     5.122E-23
  51769.948     5.921E-23
  51770.010     6.397E-23
  51770.072     7.059E-23
  51770.134     7.524E-23
  51770.196     7.077E-23
  51770.258     6.644E-23
  51770.320     5.404E-23
  51770.382     4.162E-23
  51770.444     4.692E-23
  51770.506     5.488E-23
  51770.568     5.658E-23
  51770.630     5.543E-23
  51770.692     5.969E-23
  51770.754     6.676E-23
  51770.816     6.210E-23
  51770.878     5.453E-23
  51770.940     5.074E-23
  51771.002     5.252E-23
  51771.064     5.504E-23
  51771.126     5.480E-23
  51771.188     5.649E-23
  51771.250     5.735E-23
  51771.312     5.987E-23
  51771.374     5.818E-23
  51771.436     5.052E-23
  51771.498     4.177E-23
  51771.560     3.361E-23
  51771.622     2.536E-23
  51771.684     1.206E-23
  51771.746     1.700E-24
  51771.808     7.056E-24
  51771.870     2.048E-23
  51771.932     3.667E-23
  51771.995     4.943E-23
  51772.057     4.685E-23
  51772.119     3.969E-23
  51772.181     3.275E-23
  51772.243     2.567E-23
  51772.305     2.270E-23
  51772.367     3.026E-23
  51772.429     3.362E-23
  51772.491     2.914E-23
  51772.553     2.657E-23
  51772.615     2.312E-23
  51772.677     1.862E-23
  51772.739     2.460E-23
  51772.801     2.975E-23
  51772.863     3.489E-23
  51772.925     4.285E-23
  51772.987     5.179E-23
  51773.049     5.816E-23
  51773.111     5.203E-23
  51773.173     4.408E-23
  51773.235     4.143E-23
  51773.297     3.977E-23
  51773.359     3.089E-23
  51773.421     2.280E-23
  51773.483     2.357E-23
  51773.545     2.331E-23
  51773.607     2.654E-23
  51773.669     3.361E-23
  51773.731     3.997E-23
  51773.793     4.367E-23
  51773.855     4.734E-23
  51773.917     5.525E-23
  51773.979     4.957E-23
  51774.042     3.961E-23
  51774.104     3.432E-23
  51774.166     3.087E-23
  51774.228     3.987E-23
  51774.290     3.726E-23
  51774.352     2.336E-23
  51774.414     1.727E-23
  51774.476     1.530E-23
  51774.538     1.860E-23
  51774.600     2.817E-23
  51774.662     3.360E-23
  51774.724     3.553E-23
  51774.786     3.294E-23
  51774.848     3.135E-23
  51774.910     3.047E-23
  51774.972     2.925E-23
  51775.034     2.972E-23
  51775.096     3.297E-23
  51775.158     4.539E-23
  51775.220     5.344E-23
  51775.282     5.706E-23
  51775.344     5.175E-23
  51775.406     4.810E-23
  51775.468     4.345E-23
  51775.530     3.722E-23
  51775.592     3.449E-23
  51775.654     3.525E-23
  51775.716     4.143E-23
  51775.778     4.757E-23
  51775.840     5.656E-23
  51775.902     5.822E-23
  51775.965     5.446E-23
  51776.027     5.653E-23
  51776.089     5.773E-23
  51776.151     4.600E-23
  51776.213     3.682E-23
  51776.275     3.310E-23
  51776.337     3.673E-23
  51776.399     4.735E-23
  51776.461     4.880E-23
  51776.523     4.483E-23
  51776.585     3.661E-23
  51776.647     3.413E-23
  51776.709     3.341E-23
  51776.771     3.461E-23
  51776.833     4.135E-23
  51776.895     4.798E-23
  51776.957     5.265E-23
  51777.019     4.990E-23
  51777.081     3.793E-23
  51777.143     2.871E-23
  51777.205     1.716E-23
  51777.267     1.198E-23
  51777.329     1.986E-23
  51777.391     3.215E-23
  51777.453     3.845E-23
  51777.515     3.942E-23
  51777.577     4.026E-23
  51777.639     4.011E-23
  51777.701     4.180E-23
  51777.764     3.815E-23
  51777.826     3.187E-23
  51777.888     2.389E-23
  51777.950     2.726E-23
  51778.012     3.507E-23
  51778.074     3.862E-23
  51778.136     4.581E-23
  51778.198     4.939E-23
  51778.260     4.690E-23
  51778.322     4.805E-23
  51778.384     5.164E-23
  51778.446     4.864E-23
  51778.508     4.922E-23
  51778.570     4.633E-23
  51778.632     4.610E-23
  51778.694     4.583E-23
  51778.756     4.391E-23
  51778.818     5.036E-23
  51778.880     5.788E-23
  51778.942     6.179E-23
  51779.004     6.193E-23
  51779.066     5.570E-23
  51779.128     4.299E-23
  51779.190     3.563E-23
  51779.252     3.572E-23
  51779.314     4.672E-23
  51779.377     5.845E-23
  51779.439     7.183E-23
  51779.501     6.628E-23
  51779.563     5.555E-23
  51779.625     4.313E-23
  51779.687     2.987E-23
  51779.749     2.203E-23
  51779.811     1.843E-23
  51779.873     1.814E-23
  51779.935     2.194E-23
  51779.997     2.923E-23
  51780.059     4.311E-23
  51780.121     5.661E-23
  51780.183     6.116E-23
  51780.245     6.203E-23
  51780.307     5.568E-23
  51780.369     4.594E-23
  51780.431     4.113E-23
  51780.493     3.189E-23
  51780.555     2.175E-23
  51780.617     1.597E-23
  51780.679     1.449E-23
  51780.741     1.987E-23
  51780.803     2.686E-23
  51780.865     3.733E-23
  51780.927     4.601E-23
  51780.990     5.568E-23
  51781.052     5.839E-23
  51781.114     6.120E-23
  51781.176     6.764E-23
  51781.238     7.206E-23
  51781.300     7.349E-23
  51781.362     7.760E-23
  51781.424     7.453E-23
  51781.486     7.078E-23
  51781.548     7.261E-23
  51781.610     7.069E-23
  51781.672     6.877E-23
  51781.734     6.870E-23
  51781.796     6.415E-23
  51781.858     6.154E-23
  51781.920     5.456E-23
  51781.982     5.135E-23
  51782.044     5.254E-23
  51782.106     6.243E-23
  51782.168     6.573E-23
  51782.230     6.369E-23
  51782.292     6.440E-23
  51782.354     6.804E-23
  51782.416     7.637E-23
  51782.479     8.472E-23
  51782.541     8.394E-23
  51782.603     8.121E-23
  51782.665     7.670E-23
  51782.727     8.162E-23
  51782.789     8.837E-23
  51782.851     9.603E-23
  51782.913     9.899E-23
  51782.975     9.517E-23
  51783.037     8.841E-23
  51783.099     7.427E-23
  51783.161     6.822E-23
  51783.223     6.566E-23
  51783.285     6.695E-23
  51783.347     6.873E-23
  51783.409     7.493E-23
  51783.471     7.671E-23
  51783.533     7.600E-23
  51783.595     8.876E-23
  51783.657     9.493E-23
  51783.719     9.193E-23
  51783.781     8.364E-23
  51783.843     6.895E-23
  51783.906     6.337E-23
  51783.968     6.330E-23
  51784.030     6.798E-23
  51784.092     7.184E-23
  51784.154     6.541E-23
  51784.216     6.428E-23
  51784.278     7.312E-23
  51784.340     8.484E-23
  51784.402     1.024E-22
  51784.464     1.053E-22
  51784.526     1.046E-22
  51784.588     1.001E-22
  51784.650     9.674E-23
  51784.712     1.000E-22
  51784.774     1.003E-22
  51784.836     1.014E-22
  51784.898     9.399E-23
  51784.960     9.566E-23
  51785.022     9.994E-23
  51785.084     1.014E-22
  51785.146     1.086E-22
  51785.208     1.189E-22
  51785.271     1.187E-22
  51785.333     1.205E-22
  51785.395     1.262E-22
  51785.457     1.150E-22
  51785.519     1.060E-22
  51785.581     1.007E-22
  51785.643     9.174E-23
  51785.705     9.837E-23
  51785.767     1.142E-22
  51785.829     1.274E-22
  51785.891     1.349E-22
  51785.953     1.384E-22
  51786.015     1.401E-22
  51786.077     1.390E-22
  51786.139     1.362E-22
  51786.201     1.401E-22
  51786.263     1.457E-22
  51786.325     1.444E-22
  51786.387     1.411E-22
  51786.449     1.398E-22
  51786.511     1.396E-22
  51786.574     1.454E-22
  51786.636     1.475E-22
  51786.698     1.575E-22
  51786.760     1.666E-22
  51786.822     1.638E-22
  51786.884     1.637E-22
  51786.946     1.675E-22
  51787.008     1.731E-22
  51787.070     1.827E-22
  51787.132     1.825E-22
  51787.194     1.745E-22
  51787.256     1.636E-22
  51787.318     1.580E-22
  51787.380     1.630E-22
  51787.442     1.779E-22
  51787.504     1.887E-22
  51787.566     1.916E-22
  51787.628     1.884E-22
  51787.690     1.893E-22
  51787.752     1.915E-22
  51787.815     1.996E-22
  51787.877     2.048E-22
  51787.939     2.154E-22
  51788.001     2.302E-22
  51788.063     2.449E-22
  51788.125     2.638E-22
  51788.187     2.772E-22
  51788.249     2.885E-22
  51788.311     2.934E-22
  51788.373     2.941E-22
  51788.435     2.952E-22
  51788.497     3.006E-22
  51788.559     3.137E-22
  51788.621     3.200E-22
  51788.683     3.319E-22
  51788.745     3.453E-22
  51788.807     3.555E-22
  51788.869     3.670E-22
  51788.931     3.704E-22
  51788.993     3.705E-22
  51789.056     3.799E-22
  51789.118     3.891E-22
  51789.180     4.088E-22
  51789.242     4.286E-22
  51789.304     4.465E-22
  51789.366     4.746E-22
  51789.428     5.031E-22
  51789.490     5.262E-22
  51789.552     5.511E-22
  51789.614     5.765E-22
  51789.676     5.876E-22
  51789.738     6.094E-22
  51789.800     6.385E-22
  51789.862     6.654E-22
  51789.924     6.856E-22
  51789.986     6.916E-22
  51790.048     6.916E-22
  51790.110     7.018E-22
  51790.172     7.302E-22
  51790.235     7.548E-22
  51790.297     7.827E-22
  51790.359     8.453E-22
  51790.421     8.812E-22
  51790.483     9.081E-22
  51790.545     9.285E-22
  51790.607     9.361E-22
  51790.669     9.505E-22
  51790.731     9.616E-22
  51790.793     9.699E-22
  51790.855     9.699E-22
  51790.917     9.790E-22
  51790.979     9.789E-22
  51791.041     9.805E-22
  51791.103     9.897E-22
  51791.165     9.968E-22
  51791.227     9.876E-22
  51791.289     9.695E-22
  51791.351     9.611E-22
  51791.414     9.545E-22
  51791.476     9.404E-22
  51791.538     9.353E-22
  51791.600     9.411E-22
  51791.662     9.459E-22
  51791.724     9.415E-22
  51791.786     9.414E-22
  51791.848     9.214E-22
  51791.910     8.952E-22
  51791.972     8.813E-22
  51792.034     8.618E-22
  51792.096     8.334E-22
  51792.158     8.159E-22
  51792.220     7.874E-22
  51792.282     7.719E-22
  51792.344     7.612E-22
  51792.406     7.629E-22
  51792.468     7.570E-22
  51792.531     7.464E-22
  51792.593     7.355E-22
  51792.655     7.201E-22
  51792.717     7.109E-22
  51792.779     7.020E-22
  51792.841     6.964E-22
  51792.903     6.967E-22
  51792.965     6.969E-22
  51793.027     6.999E-22
  51793.089     6.852E-22
  51793.151     6.649E-22
  51793.213     6.648E-22
  51793.275     6.703E-22
  51793.337     6.744E-22
  51793.399     6.730E-22
  51793.461     6.661E-22
  51793.523     6.623E-22
  51793.586     6.652E-22
  51793.648     6.721E-22
  51793.710     6.745E-22
  51793.772     6.683E-22
  51793.834     6.620E-22
  51793.896     6.574E-22
  51793.958     6.547E-22
  51794.020     6.480E-22
  51794.082     6.342E-22
  51794.144     6.151E-22
  51794.206     5.932E-22
  51794.268     5.811E-22
  51794.330     5.784E-22
  51794.392     5.757E-22
  51794.454     5.660E-22
  51794.516     5.564E-22
  51794.578     5.354E-22
  51794.640     5.238E-22
  51794.703     5.149E-22
  51794.765     5.022E-22
  51794.827     4.958E-22
  51794.889     4.808E-22
  51794.951     4.562E-22
  51795.013     4.356E-22
  51795.075     4.141E-22
  51795.137     3.965E-22
  51795.199     3.951E-22
  51795.261     3.938E-22
  51795.323     3.845E-22
  51795.385     3.717E-22
  51795.447     3.567E-22
  51795.509     3.418E-22
  51795.571     3.280E-22
  51795.633     3.169E-22
  51795.696     3.115E-22
  51795.758     3.040E-22
  51795.820     3.042E-22
  51795.882     3.021E-22
  51795.944     2.879E-22
  51796.006     2.715E-22
  51796.068     2.701E-22
  51796.130     2.713E-22
  51796.192     2.682E-22
  51796.254     2.618E-22
  51796.316     2.564E-22
  51796.378     2.467E-22
  51796.440     2.380E-22
  51796.502     2.265E-22
  51796.564     2.162E-22
  51796.626     2.110E-22
  51796.688     2.068E-22
  51796.751     2.057E-22
  51796.813     2.139E-22
  51796.875     2.203E-22
  51796.937     2.185E-22
  51796.999     2.187E-22
  51797.061     2.196E-22
  51797.123     2.153E-22
  51797.185     2.131E-22
  51797.247     2.151E-22
  51797.309     2.133E-22
  51797.371     2.104E-22
  51797.433     2.022E-22
  51797.495     1.859E-22
  51797.557     1.778E-22
  51797.619     1.716E-22
  51797.681     1.605E-22
  51797.744     1.517E-22
  51797.806     1.470E-22
  51797.868     1.474E-22
  51797.930     1.498E-22
  51797.992     1.519E-22
  51798.054     1.436E-22
  51798.116     1.439E-22
  51798.178     1.421E-22
  51798.240     1.374E-22
  51798.302     1.365E-22
  51798.364     1.391E-22
  51798.426     1.351E-22
  51798.488     1.379E-22
  51798.550     1.363E-22
  51798.612     1.411E-22
  51798.675     1.436E-22
  51798.737     1.343E-22
  51798.799     1.181E-22
  51798.861     1.131E-22
  51798.923     1.141E-22
  51798.985     1.192E-22
  51799.047     1.215E-22
  51799.109     1.113E-22
  51799.171     9.739E-23
  51799.233     8.803E-23
  51799.295     8.618E-23
  51799.357     9.366E-23
  51799.419     1.019E-22
  51799.481     1.149E-22
  51799.543     1.264E-22
  51799.605     1.312E-22
  51799.668     1.331E-22
  51799.730     1.293E-22
  51799.792     1.218E-22
  51799.854     1.207E-22
  51799.916     1.217E-22
  51799.978     1.180E-22
  51800.040     1.150E-22
  51800.102     1.094E-22
  51800.164     1.041E-22
  51800.226     1.033E-22
  51800.288     1.110E-22
  51800.350     1.167E-22
  51800.412     1.109E-22
  51800.474     9.994E-23
  51800.536     9.676E-23
  51800.599     1.032E-22
  51800.661     1.158E-22
  51800.723     1.294E-22
  51800.785     1.392E-22
  51800.847     1.383E-22
  51800.909     1.431E-22
  51800.971     1.428E-22
  51801.033     1.347E-22
  51801.095     1.154E-22
  51801.157     1.011E-22
  51801.219     9.824E-23
  51801.281     9.755E-23
  51801.343     1.025E-22
  51801.405     1.065E-22
  51801.467     9.634E-23
  51801.530     9.175E-23
  51801.592     9.614E-23
  51801.654     9.210E-23
  51801.716     9.195E-23
  51801.778     8.926E-23
  51801.840     8.944E-23
  51801.902     9.142E-23
  51801.964     9.425E-23
  51802.026     1.027E-22
  51802.088     1.161E-22
  51802.150     1.265E-22
  51802.212     1.317E-22
  51802.274     1.370E-22
  51802.336     1.358E-22
  51802.399     1.350E-22
  51802.461     1.267E-22
  51802.523     1.202E-22
  51802.585     1.271E-22
  51802.647     1.263E-22
  51802.709     1.250E-22
  51802.771     1.245E-22
  51802.833     1.157E-22
  51802.895     1.084E-22
  51802.957     1.031E-22
  51803.019     1.033E-22
  51803.081     1.107E-22
  51803.143     1.208E-22
  51803.205     1.225E-22
  51803.268     1.184E-22
  51803.330     1.125E-22
  51803.392     1.123E-22
  51803.454     1.187E-22
  51803.516     1.186E-22
  51803.578     1.197E-22
  51803.640     1.183E-22
  51803.702     1.226E-22
  51803.764     1.325E-22
  51803.826     1.433E-22
  51803.888     1.465E-22
  51803.950     1.483E-22
  51804.012     1.409E-22
  51804.074     1.373E-22
  51804.137     1.324E-22
  51804.199     1.248E-22
  51804.261     1.182E-22
  51804.323     1.155E-22
  51804.385     1.138E-22
  51804.447     1.121E-22
  51804.509     1.105E-22
  51804.571     1.077E-22
  51804.633     1.136E-22
  51804.695     1.283E-22
  51804.757     1.428E-22
  51804.819     1.502E-22
  51804.881     1.520E-22
  51804.943     1.519E-22
  51805.006     1.591E-22
  51805.068     1.542E-22
  51805.130     1.522E-22
  51805.192     1.539E-22
  51805.254     1.546E-22
  51805.316     1.388E-22
  51805.378     1.299E-22
  51805.440     1.279E-22
  51805.502     1.259E-22
  51805.564     1.269E-22
  51805.626     1.248E-22
  51805.688     1.264E-22
  51805.750     1.329E-22
  51805.812     1.435E-22
  51805.875     1.478E-22
  51805.937     1.432E-22
  51805.999     1.482E-22
  51806.061     1.522E-22
  51806.123     1.555E-22
  51806.185     1.685E-22
  51806.247     1.725E-22
  51806.309     1.676E-22
  51806.371     1.647E-22
  51806.433     1.559E-22
  51806.495     1.500E-22
  51806.557     1.459E-22
  51806.619     1.438E-22
  51806.682     1.446E-22
  51806.744     1.452E-22
  51806.806     1.496E-22
  51806.868     1.593E-22
  51806.930     1.583E-22
  51806.992     1.673E-22
  51807.054     1.754E-22
  51807.116     1.775E-22
  51807.178     1.866E-22
  51807.240     1.947E-22
  51807.302     1.937E-22
  51807.364     1.947E-22
  51807.426     1.948E-22
  51807.489     1.869E-22
  51807.551     1.818E-22
  51807.613     1.813E-22
  51807.675     1.849E-22
  51807.737     1.854E-22
  51807.799     1.920E-22
  51807.861     1.979E-22
  51807.923     2.001E-22
  51807.985     1.964E-22
  51808.047     1.894E-22
  51808.109     1.915E-22
  51808.171     1.906E-22
  51808.233     1.947E-22
  51808.296     2.040E-22
  51808.358     2.090E-22
  51808.420     2.129E-22
  51808.482     2.077E-22
  51808.544     2.015E-22
  51808.606     2.033E-22
  51808.668     2.059E-22
  51808.730     2.037E-22
  51808.792     2.017E-22
  51808.854     2.118E-22
  51808.916     2.285E-22
  51808.978     2.454E-22
  51809.040     2.563E-22
  51809.103     2.594E-22
  51809.165     2.655E-22
  51809.227     2.642E-22
  51809.289     2.645E-22
  51809.351     2.628E-22
  51809.413     2.584E-22
  51809.475     2.645E-22
  51809.537     2.740E-22
  51809.599     2.860E-22
  51809.661     2.933E-22
  51809.723     2.961E-22
  51809.785     3.033E-22
  51809.847     3.065E-22
  51809.910     3.111E-22
  51809.972     3.156E-22
  51810.034     3.255E-22
  51810.096     3.332E-22
  51810.158     3.330E-22
  51810.220     3.262E-22
  51810.282     3.274E-22
  51810.344     3.276E-22
  51810.406     3.375E-22
  51810.468     3.545E-22
  51810.530     3.706E-22
  51810.592     3.810E-22
  51810.655     3.913E-22
  51810.717     4.072E-22
  51810.779     4.209E-22
  51810.841     4.338E-22
  51810.903     4.517E-22
  51810.965     4.640E-22
  51811.027     4.680E-22
  51811.089     4.757E-22
  51811.151     4.920E-22
  51811.213     5.010E-22
  51811.275     5.153E-22
  51811.337     5.205E-22
  51811.399     5.191E-22
  51811.462     5.227E-22
  51811.524     5.486E-22
  51811.586     5.832E-22
  51811.648     6.092E-22
  51811.710     6.328E-22
  51811.772     6.611E-22
  51811.834     6.798E-22
  51811.896     6.958E-22
  51811.958     7.176E-22
  51812.020     7.367E-22
  51812.082     7.595E-22
  51812.144     7.873E-22
  51812.207     8.203E-22
  51812.269     8.692E-22
  51812.331     9.187E-22
  51812.393     9.562E-22
  51812.455     9.867E-22
  51812.517     1.017E-21
  51812.579     1.050E-21
  51812.641     1.076E-21
  51812.703     1.112E-21
  51812.765     1.149E-21
  51812.827     1.193E-21
  51812.889     1.235E-21
  51812.952     1.282E-21
  51813.014     1.331E-21
  51813.076     1.391E-21
  51813.138     1.451E-21
  51813.200     1.499E-21
  51813.262     1.544E-21
  51813.324     1.602E-21
  51813.386     1.660E-21
  51813.448     1.715E-21
  51813.510     1.749E-21
  51813.572     1.781E-21
  51813.634     1.809E-21
  51813.697     1.829E-21
  51813.759     1.851E-21
  51813.821     1.870E-21
  51813.883     1.883E-21
  51813.945     1.899E-21
  51814.007     1.916E-21
  51814.069     1.920E-21
  51814.131     1.913E-21
  51814.193     1.913E-21
  51814.255     1.909E-21
  51814.317     1.914E-21
  51814.380     1.890E-21
  51814.442     1.879E-21
  51814.504     1.875E-21
  51814.566     1.863E-21
  51814.628     1.859E-21
  51814.690     1.842E-21
  51814.752     1.818E-21
  51814.814     1.799E-21
  51814.876     1.784E-21
  51814.938     1.755E-21
  51815.000     1.732E-21
  51815.062     1.713E-21
  51815.125     1.705E-21
  51815.187     1.688E-21
  51815.249     1.690E-21
  51815.311     1.671E-21
  51815.373     1.651E-21
  51815.435     1.631E-21
  51815.497     1.623E-21
  51815.559     1.619E-21
  51815.621     1.621E-21
  51815.683     1.612E-21
  51815.745     1.597E-21
  51815.807     1.576E-21
  51815.870     1.580E-21
  51815.932     1.596E-21
  51815.994     1.612E-21
  51816.056     1.608E-21
  51816.118     1.587E-21
  51816.180     1.573E-21
  51816.242     1.567E-21
  51816.304     1.544E-21
  51816.366     1.519E-21
  51816.428     1.492E-21
  51816.490     1.470E-21
  51816.553     1.453E-21
  51816.615     1.423E-21
  51816.677     1.393E-21
  51816.739     1.368E-21
  51816.801     1.353E-21
  51816.863     1.338E-21
  51816.925     1.327E-21
  51816.987     1.304E-21
  51817.049     1.261E-21
  51817.111     1.230E-21
  51817.173     1.206E-21
  51817.236     1.183E-21
  51817.298     1.143E-21
  51817.360     1.110E-21
  51817.422     1.085E-21
  51817.484     1.058E-21
  51817.546     1.032E-21
  51817.608     1.013E-21
  51817.670     9.868E-22
  51817.732     9.493E-22
  51817.794     9.224E-22
  51817.856     8.979E-22
  51817.919     8.792E-22
  51817.981     8.583E-22
  51818.043     8.330E-22
  51818.105     8.021E-22
  51818.167     7.814E-22
  51818.229     7.549E-22
  51818.291     7.381E-22
  51818.353     7.200E-22
  51818.415     7.067E-22
  51818.477     7.039E-22
  51818.539     6.866E-22
  51818.602     6.741E-22
  51818.664     6.615E-22
  51818.726     6.485E-22
  51818.788     6.272E-22
  51818.850     6.033E-22
  51818.912     5.809E-22
  51818.974     5.683E-22
  51819.036     5.627E-22
  51819.098     5.575E-22
  51819.160     5.541E-22
  51819.222     5.426E-22
  51819.285     5.233E-22
  51819.347     4.990E-22
  51819.409     4.853E-22
  51819.471     4.715E-22
  51819.533     4.575E-22
  51819.595     4.476E-22
  51819.657     4.357E-22
  51819.719     4.276E-22
  51819.781     4.217E-22
  51819.843     4.171E-22
  51819.905     4.182E-22
  51819.968     4.092E-22
  51820.030     4.003E-22
  51820.092     3.942E-22
  51820.154     3.918E-22
  51820.216     3.826E-22
  51820.278     3.678E-22
  51820.340     3.598E-22
  51820.402     3.532E-22
  51820.464     3.537E-22
  51820.526     3.585E-22
  51820.588     3.529E-22
  51820.651     3.425E-22
  51820.713     3.324E-22
  51820.775     3.335E-22
  51820.837     3.391E-22
  51820.899     3.322E-22
  51820.961     3.244E-22
  51821.023     3.246E-22
  51821.085     3.236E-22
  51821.147     3.159E-22
  51821.209     3.071E-22
  51821.272     3.014E-22
  51821.334     2.958E-22
  51821.396     2.900E-22
  51821.458     2.855E-22
  51821.520     2.910E-22
  51821.582     2.929E-22
  51821.644     2.983E-22
  51821.706     3.016E-22
  51821.768     3.028E-22
  51821.830     2.941E-22
  51821.892     2.930E-22
  51821.955     2.917E-22
  51822.017     2.948E-22
  51822.079     2.915E-22
  51822.141     2.874E-22
  51822.203     2.866E-22
  51822.265     2.824E-22
  51822.327     2.836E-22
  51822.389     2.868E-22
  51822.451     2.886E-22
  51822.513     2.940E-22
  51822.576     3.071E-22
  51822.638     3.167E-22
  51822.700     3.166E-22
  51822.762     3.107E-22
  51822.824     3.027E-22
  51822.886     2.937E-22
  51822.948     2.893E-22
  51823.010     2.861E-22
  51823.072     2.765E-22
  51823.134     2.650E-22
  51823.197     2.575E-22
  51823.259     2.588E-22
  51823.321     2.623E-22
  51823.383     2.613E-22
  51823.445     2.654E-22
  51823.507     2.660E-22
  51823.569     2.688E-22
  51823.631     2.742E-22
  51823.693     2.851E-22
  51823.755     2.928E-22
  51823.817     2.909E-22
  51823.880     2.856E-22
  51823.942     2.757E-22
  51824.004     2.690E-22
  51824.066     2.727E-22
  51824.128     2.727E-22
  51824.190     2.741E-22
  51824.252     2.594E-22
  51824.314     2.477E-22
  51824.376     2.424E-22
  51824.438     2.431E-22
  51824.501     2.481E-22
  51824.563     2.499E-22
  51824.625     2.497E-22
  51824.687     2.570E-22
  51824.749     2.630E-22
  51824.811     2.736E-22
  51824.873     2.824E-22
  51824.935     2.862E-22
  51824.997     2.822E-22
  51825.059     2.736E-22
  51825.122     2.712E-22
  51825.184     2.741E-22
  51825.246     2.859E-22
  51825.308     2.937E-22
  51825.370     2.915E-22
  51825.432     2.946E-22
  51825.494     2.981E-22
  51825.556     2.938E-22
  51825.618     2.934E-22
  51825.680     2.995E-22
  51825.743     3.068E-22
  51825.805     3.200E-22
  51825.867     3.211E-22
  51825.929     3.076E-22
  51825.991     2.966E-22
  51826.053     2.955E-22
  51826.115     2.982E-22
  51826.177     3.009E-22
  51826.239     3.023E-22
  51826.301     3.038E-22
  51826.364     3.036E-22
  51826.426     3.101E-22
  51826.488     3.177E-22
  51826.550     3.377E-22
  51826.612     3.661E-22
  51826.674     3.787E-22
  51826.736     3.822E-22
  51826.798     3.796E-22
  51826.860     3.744E-22
  51826.923     3.761E-22
  51826.985     3.759E-22
  51827.047     3.687E-22
  51827.109     3.605E-22
  51827.171     3.520E-22
  51827.233     3.435E-22
  51827.295     3.456E-22
  51827.357     3.615E-22
  51827.419     3.741E-22
  51827.481     3.777E-22
  51827.544     3.857E-22
  51827.606     3.971E-22
  51827.668     4.065E-22
  51827.730     4.259E-22
  51827.792     4.442E-22
  51827.854     4.637E-22
  51827.916     4.661E-22
  51827.978     4.631E-22
  51828.040     4.785E-22
  51828.102     4.970E-22
  51828.165     5.070E-22
  51828.227     5.184E-22
  51828.289     5.170E-22
  51828.351     5.088E-22
  51828.413     5.060E-22
  51828.475     5.149E-22
  51828.537     5.190E-22
  51828.599     5.228E-22
  51828.661     5.397E-22
  51828.724     5.679E-22
  51828.786     5.924E-22
  51828.848     6.213E-22
  51828.910     6.394E-22
  51828.972     6.567E-22
  51829.034     6.636E-22
  51829.096     6.782E-22
  51829.158     6.840E-22
  51829.220     6.927E-22
  51829.282     7.107E-22
  51829.345     7.290E-22
  51829.407     7.445E-22
  51829.469     7.664E-22
  51829.531     7.868E-22
  51829.593     7.965E-22
  51829.655     8.033E-22
  51829.717     8.199E-22
  51829.779     8.448E-22
  51829.841     8.825E-22
  51829.904     9.126E-22
  51829.966     9.408E-22
  51830.028     9.626E-22
  51830.090     9.772E-22
  51830.152     9.902E-22
  51830.214     1.007E-21
  51830.276     1.032E-21
  51830.338     1.087E-21
  51830.400     1.132E-21
  51830.463     1.171E-21
  51830.525     1.221E-21
  51830.587     1.237E-21
  51830.649     1.255E-21
  51830.711     1.292E-21
  51830.773     1.354E-21
  51830.835     1.418E-21
  51830.897     1.460E-21
  51830.959     1.504E-21
  51831.021     1.531E-21
  51831.084     1.565E-21
  51831.146     1.619E-21
  51831.208     1.678E-21
  51831.270     1.750E-21
  51831.332     1.831E-21
  51831.394     1.895E-21
  51831.456     1.944E-21
  51831.518     1.984E-21
  51831.580     2.051E-21
  51831.643     2.128E-21
  51831.705     2.202E-21
  51831.767     2.266E-21
  51831.829     2.338E-21
  51831.891     2.414E-21
  51831.953     2.483E-21
  51832.015     2.545E-21
  51832.077     2.601E-21
  51832.139     2.647E-21
  51832.202     2.705E-21
  51832.264     2.814E-21
  51832.326     2.855E-21
  51832.388     2.886E-21
  51832.450     2.911E-21
  51832.512     2.949E-21
  51832.574     2.987E-21
  51832.636     3.015E-21
  51832.698     3.026E-21
  51832.761     3.026E-21
  51832.823     3.038E-21
  51832.885     3.037E-21
  51832.947     3.007E-21
  51833.009     2.987E-21
  51833.071     2.987E-21
  51833.133     3.004E-21
  51833.195     3.017E-21
  51833.257     3.013E-21
  51833.320     3.001E-21
  51833.382     2.987E-21
  51833.444     2.977E-21
  51833.506     2.973E-21
  51833.568     2.961E-21
  51833.630     2.953E-21
  51833.692     2.964E-21
  51833.754     2.960E-21
  51833.816     2.939E-21
  51833.879     2.933E-21
  51833.941     2.927E-21
  51834.003     2.904E-21
  51834.065     2.865E-21
  51834.127     2.842E-21
  51834.189     2.839E-21
  51834.251     2.825E-21
  51834.313     2.796E-21
  51834.375     2.760E-21
  51834.438     2.714E-21
  51834.500     2.667E-21
  51834.562     2.615E-21
  51834.624     2.554E-21
  51834.686     2.496E-21
  51834.748     2.432E-21
  51834.810     2.370E-21
  51834.872     2.308E-21
  51834.934     2.233E-21
  51834.997     2.168E-21
  51835.059     2.111E-21
  51835.121     2.052E-21
  51835.183     1.988E-21
  51835.245     1.925E-21
  51835.307     1.862E-21
  51835.369     1.807E-21
  51835.431     1.756E-21
  51835.493     1.711E-21
  51835.556     1.670E-21
  51835.618     1.633E-21
  51835.680     1.558E-21
  51835.742     1.515E-21
  51835.804     1.479E-21
  51835.866     1.449E-21
  51835.928     1.406E-21
  51835.990     1.363E-21
  51836.053     1.317E-21
  51836.115     1.279E-21
  51836.177     1.283E-21
  51836.239     1.245E-21
  51836.301     1.212E-21
  51836.363     1.170E-21
  51836.425     1.139E-21
  51836.487     1.112E-21
  51836.549     1.075E-21
  51836.612     1.033E-21
  51836.674     9.858E-22
  51836.736     9.522E-22
  51836.798     9.254E-22
  51836.860     9.097E-22
  51836.922     9.109E-22
  51836.984     9.056E-22
  51837.046     9.025E-22
  51837.108     8.949E-22
  51837.171     8.776E-22
  51837.233     8.508E-22
  51837.295     8.278E-22
  51837.357     8.067E-22
  51837.419     8.065E-22
  51837.481     7.970E-22
  51837.543     7.938E-22
  51837.605     7.873E-22
  51837.668     7.761E-22
  51837.730     7.573E-22
  51837.792     7.341E-22
  51837.854     7.054E-22
  51837.916     6.787E-22
  51837.978     6.668E-22
  51838.040     6.666E-22
  51838.102     6.679E-22
  51838.164     6.652E-22
  51838.227     6.628E-22
  51838.289     6.506E-22
  51838.351     6.367E-22
  51838.413     6.224E-22
  51838.475     6.165E-22
  51838.537     6.135E-22
  51838.599     6.065E-22
  51838.661     5.978E-22
  51838.724     5.864E-22
  51838.786     5.769E-22
  51838.848     5.688E-22
  51838.910     5.621E-22
  51838.972     5.568E-22
  51839.034     5.449E-22
  51839.096     5.370E-22
  51839.158     5.422E-22
  51839.220     5.474E-22
  51839.283     5.565E-22
  51839.345     5.626E-22
  51839.407     5.555E-22
  51839.469     5.554E-22
  51839.531     5.542E-22
  51839.593     5.453E-22
  51839.655     5.466E-22
  51839.717     5.447E-22
  51839.780     5.350E-22
  51839.842     5.306E-22
  51839.904     5.357E-22
  51839.966     5.434E-22
  51840.028     5.514E-22
  51840.090     5.649E-22
  51840.152     5.745E-22
  51840.214     5.772E-22
  51840.277     5.811E-22
  51840.339     5.745E-22
  51840.401     5.612E-22
  51840.463     5.505E-22
  51840.525     5.530E-22
  51840.587     5.525E-22
  51840.649     5.463E-22
  51840.711     5.549E-22
  51840.773     5.736E-22
  51840.836     5.886E-22
  51840.898     5.902E-22
  51840.960     5.905E-22
  51841.022     5.946E-22
  51841.084     6.099E-22
  51841.146     6.194E-22
  51841.208     6.246E-22
  51841.270     6.355E-22
  51841.333     6.409E-22
  51841.395     6.448E-22
  51841.457     6.470E-22
  51841.519     6.408E-22
  51841.581     6.489E-22
  51841.643     6.646E-22
  51841.705     6.792E-22
  51841.767     6.837E-22
  51841.830     6.942E-22
  51841.892     7.075E-22
  51841.954     7.227E-22
  51842.016     7.361E-22
  51842.078     7.467E-22
  51842.140     7.662E-22
  51842.202     7.864E-22
  51842.264     7.934E-22
  51842.327     7.987E-22
  51842.389     8.047E-22
  51842.451     7.987E-22
  51842.513     8.128E-22
  51842.575     8.414E-22
  51842.637     8.725E-22
  51842.699     8.938E-22
  51842.761     9.095E-22
  51842.824     9.286E-22
  51842.886     9.453E-22
  51842.948     9.722E-22
  51843.010     9.960E-22
  51843.072     1.006E-21
  51843.134     1.023E-21
  51843.196     1.040E-21
  51843.258     1.068E-21
  51843.321     1.104E-21
  51843.383     1.183E-21
  51843.445     1.219E-21
  51843.507     1.244E-21
  51843.569     1.282E-21
  51843.631     1.320E-21
  51843.693     1.342E-21
  51843.755     1.358E-21
  51843.818     1.381E-21
  51843.880     1.391E-21
  51843.942     1.424E-21
  51844.004     1.471E-21
  51844.066     1.513E-21
  51844.128     1.568E-21
  51844.190     1.622E-21
  51844.252     1.670E-21
  51844.315     1.735E-21
  51844.377     1.786E-21
  51844.439     1.839E-21
  51844.501     1.893E-21
  51844.563     1.949E-21
  51844.625     2.024E-21
  51844.687     2.103E-21
  51844.749     2.159E-21
  51844.812     2.223E-21
  51844.874     2.289E-21
  51844.936     2.351E-21
  51844.998     2.425E-21
  51845.060     2.507E-21
  51845.122     2.602E-21
  51845.184     2.696E-21
  51845.246     2.806E-21
  51845.309     2.891E-21
  51845.371     2.986E-21
  51845.433     3.074E-21
  51845.495     3.160E-21
  51845.557     3.228E-21
  51845.619     3.291E-21
  51845.681     3.342E-21
  51845.743     3.369E-21
  51845.806     3.399E-21
  51845.868     3.455E-21
  51845.930     3.535E-21
  51845.992     3.596E-21
  51846.054     3.671E-21
  51846.116     3.742E-21
  51846.178     3.781E-21
  51846.240     3.819E-21
  51846.303     3.844E-21
  51846.365     3.866E-21
  51846.427     3.874E-21
  51846.489     3.870E-21
  51846.551     3.898E-21
  51846.613     3.903E-21
  51846.675     3.928E-21
  51846.738     3.952E-21
  51846.800     3.985E-21
  51846.862     3.993E-21
  51846.924     3.976E-21
  51846.986     3.967E-21
  51847.048     3.949E-21
  51847.110     3.948E-21
  51847.172     3.933E-21
  51847.235     3.885E-21
  51847.297     3.817E-21
  51847.359     3.729E-21
  51847.421     3.662E-21
  51847.483     3.615E-21
  51847.545     3.553E-21
  51847.607     3.497E-21
  51847.669     3.452E-21
  51847.732     3.409E-21
  51847.794     3.354E-21
  51847.856     3.273E-21
  51847.918     3.195E-21
  51847.980     3.130E-21
  51848.042     3.053E-21
  51848.104     2.976E-21
  51848.166     2.920E-21
  51848.229     2.856E-21
  51848.291     2.758E-21
  51848.353     2.660E-21
  51848.415     2.580E-21
  51848.477     2.496E-21
  51848.539     2.411E-21
  51848.601     2.340E-21
  51848.664     2.272E-21
  51848.726     2.183E-21
  51848.788     2.107E-21
  51848.850     2.044E-21
  51848.912     2.002E-21
  51848.974     1.952E-21
  51849.036     1.896E-21
  51849.098     1.836E-21
  51849.161     1.791E-21
  51849.223     1.748E-21
  51849.285     1.696E-21
  51849.347     1.673E-21
  51849.409     1.633E-21
  51849.471     1.595E-21
  51849.533     1.565E-21
  51849.596     1.535E-21
  51849.658     1.510E-21
  51849.720     1.483E-21
  51849.782     1.439E-21
  51849.844     1.408E-21
  51849.906     1.384E-21
  51849.968     1.351E-21
  51850.030     1.314E-21
  51850.093     1.288E-21
  51850.155     1.266E-21
  51850.217     1.250E-21
  51850.279     1.237E-21
  51850.341     1.240E-21
  51850.403     1.231E-21
  51850.465     1.221E-21
  51850.528     1.205E-21
  51850.590     1.195E-21
  51850.652     1.195E-21
  51850.714     1.177E-21
  51850.776     1.151E-21
  51850.838     1.125E-21
  51850.900     1.112E-21
  51850.962     1.110E-21
  51851.025     1.112E-21
  51851.087     1.109E-21
  51851.149     1.097E-21
  51851.211     1.097E-21
  51851.273     1.111E-21
  51851.335     1.125E-21
  51851.397     1.135E-21
  51851.460     1.135E-21
  51851.522     1.130E-21
  51851.584     1.125E-21
  51851.646     1.128E-21
  51851.708     1.133E-21
  51851.770     1.140E-21
  51851.832     1.157E-21
  51851.895     1.174E-21
  51851.957     1.180E-21
  51852.019     1.188E-21
  51852.081     1.195E-21
  51852.143     1.208E-21
  51852.205     1.234E-21
  51852.267     1.269E-21
  51852.329     1.297E-21
  51852.392     1.309E-21
  51852.454     1.322E-21
  51852.516     1.350E-21
  51852.578     1.382E-21
  51852.640     1.403E-21
  51852.702     1.441E-21
  51852.764     1.489E-21
  51852.827     1.510E-21
  51852.889     1.531E-21
  51852.951     1.552E-21
  51853.013     1.577E-21
  51853.075     1.616E-21
  51853.137     1.673E-21
  51853.199     1.707E-21
  51853.262     1.748E-21
  51853.324     1.780E-21
  51853.386     1.811E-21
  51853.448     1.846E-21
  51853.510     1.896E-21
  51853.572     1.961E-21
  51853.634     2.022E-21
  51853.697     2.072E-21
  51853.759     2.118E-21
  51853.821     2.185E-21
  51853.883     2.252E-21
  51853.945     2.295E-21
  51854.007     2.343E-21
  51854.069     2.407E-21
  51854.131     2.498E-21
  51854.194     2.589E-21
  51854.256     2.662E-21
  51854.318     2.731E-21
  51854.380     2.841E-21
  51854.442     2.886E-21
  51854.504     2.921E-21
  51854.566     2.975E-21
  51854.629     3.048E-21
  51854.691     3.133E-21
  51854.753     3.229E-21
  51854.815     3.308E-21
  51854.877     3.367E-21
  51854.939     3.427E-21
  51855.001     3.472E-21
  51855.064     3.502E-21
  51855.126     3.523E-21
  51855.188     3.556E-21
  51855.250     3.573E-21
  51855.312     3.579E-21
  51855.374     3.580E-21
  51855.436     3.577E-21
  51855.499     3.584E-21
  51855.561     3.591E-21
  51855.623     3.584E-21
  51855.685     3.575E-21
  51855.747     3.557E-21
  51855.809     3.518E-21
  51855.871     3.482E-21
  51855.934     3.437E-21
  51855.996     3.399E-21
  51856.058     3.351E-21
  51856.120     3.301E-21
  51856.182     3.240E-21
  51856.244     3.176E-21
  51856.306     3.108E-21
  51856.369     3.072E-21
  51856.431     3.055E-21
  51856.493     3.050E-21
  51856.555     3.048E-21
  51856.617     3.024E-21
  51856.679     2.978E-21
  51856.741     2.957E-21
  51856.804     2.945E-21
  51856.866     2.915E-21
  51856.928     2.839E-21
  51856.990     2.783E-21
  51857.052     2.762E-21
  51857.114     2.730E-21
  51857.176     2.682E-21
  51857.239     2.650E-21
  51857.301     2.607E-21
  51857.363     2.569E-21
  51857.425     2.544E-21
  51857.487     2.516E-21
  51857.549     2.496E-21
  51857.611     2.486E-21
  51857.674     2.481E-21
  51857.736     2.471E-21
  51857.798     2.446E-21
  51857.860     2.420E-21
  51857.922     2.401E-21
  51857.984     2.384E-21
  51858.046     2.374E-21
  51858.109     2.372E-21
  51858.171     2.364E-21
  51858.233     2.368E-21
  51858.295     2.360E-21
  51858.357     2.334E-21
  51858.419     2.317E-21
  51858.481     2.308E-21
  51858.544     2.304E-21
  51858.606     2.294E-21
  51858.668     2.283E-21
  51858.730     2.268E-21
  51858.792     2.238E-21
  51858.854     2.198E-21
  51858.916     2.154E-21
  51858.979     2.114E-21
  51859.041     2.065E-21
  51859.103     2.034E-21
  51859.165     2.020E-21
  51859.227     2.008E-21
  51859.289     1.987E-21
  51859.351     1.940E-21
  51859.414     1.890E-21
  51859.476     1.845E-21
  51859.538     1.808E-21
  51859.600     1.769E-21
  51859.662     1.717E-21
  51859.724     1.684E-21
  51859.787     1.645E-21
  51859.849     1.609E-21
  51859.911     1.576E-21
  51859.973     1.547E-21
  51860.035     1.500E-21
  51860.097     1.444E-21
  51860.159     1.397E-21
  51860.222     1.363E-21
  51860.284     1.320E-21
  51860.346     1.276E-21
  51860.408     1.240E-21
  51860.470     1.206E-21
  51860.532     1.172E-21
  51860.594     1.148E-21
  51860.657     1.118E-21
  51860.719     1.088E-21
  51860.781     1.066E-21
  51860.843     1.048E-21
  51860.905     1.029E-21
  51860.967     9.929E-22
  51861.029     9.624E-22
  51861.092     9.540E-22
  51861.154     9.408E-22
  51861.216     9.225E-22
  51861.278     8.988E-22
  51861.340     8.810E-22
  51861.402     8.559E-22
  51861.464     8.335E-22
  51861.527     8.017E-22
  51861.589     7.649E-22
  51861.651     7.447E-22
  51861.713     7.262E-22
  51861.775     7.006E-22
  51861.837     6.828E-22
  51861.900     6.654E-22
  51861.962     6.411E-22
  51862.024     6.285E-22
  51862.086     6.186E-22
  51862.148     6.057E-22
  51862.210     5.821E-22
  51862.272     5.753E-22
  51862.335     5.714E-22
  51862.397     5.608E-22
  51862.459     5.461E-22
  51862.521     5.288E-22
  51862.583     5.091E-22
  51862.645     4.986E-22
  51862.707     5.024E-22
  51862.770     5.062E-22
  51862.832     4.974E-22
  51862.894     4.835E-22
  51862.956     4.633E-22
  51863.018     4.508E-22
  51863.080     4.345E-22
  51863.143     4.196E-22
  51863.205     4.147E-22
  51863.267     4.052E-22
  51863.329     3.946E-22
  51863.391     3.897E-22
  51863.453     3.885E-22
  51863.515     3.871E-22
  51863.578     3.835E-22
  51863.640     3.765E-22
  51863.702     3.672E-22
  51863.764     3.579E-22
  51863.826     3.452E-22
  51863.888     3.315E-22
  51863.951     3.225E-22
  51864.013     3.089E-22
  51864.075     2.941E-22
  51864.137     2.948E-22
  51864.199     2.976E-22
  51864.261     2.960E-22
  51864.323     2.892E-22
  51864.386     2.858E-22
  51864.448     2.825E-22
  51864.510     2.715E-22
  51864.572     2.639E-22
  51864.634     2.595E-22
  51864.696     2.549E-22
  51864.759     2.534E-22
  51864.821     2.521E-22
  51864.883     2.627E-22
  51864.945     2.692E-22
  51865.007     2.703E-22
  51865.069     2.627E-22
  51865.131     2.582E-22
  51865.194     2.518E-22
  51865.256     2.367E-22
  51865.318     2.215E-22
  51865.380     2.161E-22
  51865.442     2.097E-22
  51865.504     2.086E-22
  51865.567     2.065E-22
  51865.629     2.061E-22
  51865.691     2.088E-22
  51865.753     2.105E-22
  51865.815     2.110E-22
  51865.877     2.168E-22
  51865.939     2.227E-22
  51866.002     2.242E-22
  51866.064     2.218E-22
  51866.126     2.153E-22
  51866.188     2.012E-22
  51866.250     1.976E-22
  51866.312     2.004E-22
  51866.375     2.010E-22
  51866.437     2.029E-22
  51866.499     2.029E-22
  51866.561     1.943E-22
  51866.623     1.876E-22
  51866.685     1.809E-22
  51866.747     1.703E-22
  51866.810     1.718E-22
  51866.872     1.711E-22
  51866.934     1.713E-22
  51866.996     1.777E-22
  51867.058     1.886E-22
  51867.120     1.923E-22
  51867.183     1.865E-22
  51867.245     1.726E-22
  51867.307     1.659E-22
  51867.369     1.674E-22
  51867.431     1.771E-22
  51867.493     1.788E-22
  51867.556     1.801E-22
  51867.618     1.856E-22
  51867.680     1.829E-22
  51867.742     1.832E-22
  51867.804     1.876E-22
  51867.866     1.837E-22
  51867.928     1.718E-22
  51867.991     1.611E-22
  51868.053     1.600E-22
  51868.115     1.670E-22
  51868.177     1.686E-22
  51868.239     1.703E-22
  51868.301     1.638E-22
  51868.364     1.583E-22
  51868.426     1.486E-22
  51868.488     1.443E-22
  51868.550     1.442E-22
  51868.612     1.462E-22
  51868.674     1.395E-22
  51868.737     1.260E-22
  51868.799     1.183E-22
  51868.861     1.155E-22
  51868.923     1.068E-22
  51868.985     1.111E-22
  51869.047     1.234E-22
  51869.109     1.377E-22
  51869.172     1.469E-22
  51869.234     1.421E-22
  51869.296     1.382E-22
  51869.358     1.434E-22
  51869.420     1.376E-22
  51869.482     1.278E-22
  51869.545     1.132E-22
  51869.607     1.009E-22
  51869.669     9.159E-23
  51869.731     9.074E-23
  51869.793     9.541E-23
  51869.855     1.022E-22
  51869.918     1.082E-22
  51869.980     1.172E-22
  51870.042     1.233E-22
  51870.104     1.293E-22
  51870.166     1.324E-22
  51870.228     1.384E-22
  51870.291     1.384E-22
  51870.353     1.307E-22
  51870.415     1.103E-22
  51870.477     9.200E-23
  51870.539     7.980E-23
  51870.601     7.449E-23
  51870.663     6.533E-23
  51870.726     6.547E-23
  51870.788     6.924E-23
  51870.850     8.053E-23
  51870.912     9.482E-23
  51870.974     1.008E-22
  51871.036     9.827E-23
  51871.099     8.729E-23
  51871.161     7.339E-23
  51871.223     6.136E-23
  51871.285     5.701E-23
  51871.347     5.460E-23
  51871.409     5.876E-23
  51871.472     5.838E-23
  51871.534     7.231E-23
  51871.596     9.023E-23
  51871.658     1.024E-22
  51871.720     1.029E-22
  51871.782     9.542E-23
  51871.845     8.971E-23
  51871.907     9.260E-23
  51871.969     9.751E-23
  51872.031     1.053E-22
  51872.093     1.114E-22
  51872.155     1.058E-22
  51872.218     1.003E-22
  51872.280     1.034E-22
  51872.342     9.790E-23
  51872.404     9.022E-23
  51872.466     8.537E-23
  51872.528     7.225E-23
  51872.591     6.882E-23
  51872.653     7.294E-23
  51872.715     6.954E-23
  51872.777     6.884E-23
  51872.839     6.985E-23
  51872.901     8.133E-23
  51872.964     9.226E-23
  51873.026     1.023E-22
  51873.088     9.879E-23
  51873.150     8.822E-23
  51873.212     8.665E-23
  51873.274     8.517E-23
  51873.337     8.747E-23
  51873.399     8.675E-23
  51873.461     8.763E-23
  51873.523     9.124E-23
  51873.585     9.288E-23
  51873.647     9.076E-23
  51873.710     9.657E-23
  51873.772     9.940E-23
  51873.834     9.456E-23
  51873.896     7.997E-23
  51873.958     6.346E-23
  51874.020     5.094E-23
  51874.083     4.339E-23
  51874.145     4.894E-23
  51874.207     5.378E-23
  51874.269     5.527E-23
  51874.331     5.102E-23
  51874.393     4.272E-23
  51874.456     4.075E-23
  51874.518     4.426E-23
  51874.580     5.248E-23
  51874.642     7.002E-23
  51874.704     8.387E-23
  51874.766     8.749E-23
  51874.829     8.079E-23
  51874.891     6.683E-23
  51874.953     5.458E-23
  51875.015     4.845E-23
  51875.077     5.083E-23
  51875.139     5.745E-23
  51875.202     6.908E-23
  51875.264     7.501E-23
  51875.326     7.422E-23
  51875.388     7.232E-23
  51875.450     6.741E-23
  51875.512     5.881E-23
  51875.575     4.840E-23
  51875.637     4.138E-23
  51875.699     4.166E-23
  51875.761     4.198E-23
  51875.823     4.416E-23
  51875.885     4.837E-23
  51875.948     5.537E-23
  51876.010     5.766E-23
  51876.072     5.442E-23
  51876.134     5.314E-23
  51876.196     5.104E-23
  51876.258     4.399E-23
  51876.321     4.114E-23
  51876.383     4.524E-23
  51876.445     4.950E-23
  51876.507     5.282E-23
  51876.569     5.224E-23
  51876.631     5.526E-23
  51876.694     5.742E-23
  51876.756     6.253E-23
  51876.818     6.497E-23
  51876.880     5.340E-23
  51876.942     4.009E-23
  51877.004     3.789E-23
  51877.067     3.094E-23
  51877.129     3.135E-23
  51877.191     3.260E-23
  51877.253     3.843E-23
  51877.315     4.412E-23
  51877.377     4.308E-23
  51877.440     4.410E-23
  51877.502     4.632E-23
  51877.564     4.483E-23
  51877.626     4.990E-23
  51877.688     5.406E-23
  51877.750     5.429E-23
  51877.813     6.098E-23
  51877.875     6.279E-23
  51877.937     6.364E-23
  51877.999     6.468E-23
  51878.061     7.068E-23
  51878.123     7.293E-23
  51878.186     7.311E-23
  51878.248     7.141E-23
  51878.310     6.217E-23
  51878.372     5.491E-23
  51878.434     5.639E-23
  51878.497     5.501E-23
  51878.559     5.530E-23
  51878.621     5.658E-23
  51878.683     6.103E-23
  51878.745     6.073E-23
  51878.807     6.635E-23
  51878.870     6.713E-23
  51878.932     5.746E-23
  51878.994     5.354E-23
  51879.056     5.540E-23
  51879.118     5.428E-23
  51879.180     5.490E-23
  51879.243     5.170E-23
  51879.305     4.388E-23
  51879.367     4.780E-23
  51879.429     5.766E-23
  51879.491     5.508E-23
  51879.553     5.823E-23
  51879.616     5.663E-23
  51879.678     5.696E-23
  51879.740     5.360E-23
  51879.802     4.728E-23
  51879.864     4.266E-23
  51879.926     3.788E-23
  51879.989     4.055E-23
  51880.051     4.136E-23
  51880.113     4.522E-23
  51880.175     4.184E-23
  51880.237     4.123E-23
  51880.300     4.332E-23
  51880.362     3.607E-23
  51880.424     2.984E-23
  51880.486     2.906E-23
  51880.548     3.486E-23
  51880.610     3.801E-23
  51880.673     3.646E-23
  51880.735     3.853E-23
  51880.797     4.229E-23
  51880.859     4.406E-23
  51880.921     4.983E-23
  51880.983     5.685E-23
  51881.046     6.317E-23
  51881.108     6.297E-23
  51881.170     5.130E-23
  51881.232     4.526E-23
  51881.294     5.039E-23
  51881.357     5.640E-23
  51881.419     6.532E-23
  51881.481     6.942E-23
  51881.543     6.394E-23
  51881.605     6.436E-23
  51881.667     6.397E-23
  51881.730     5.619E-23
  51881.792     4.568E-23
  51881.854     3.526E-23
  51881.916     3.143E-23
  51881.978     3.298E-23
  51882.040     3.523E-23
  51882.103     4.035E-23
  51882.165     4.725E-23
  51882.227     5.217E-23
  51882.289     5.425E-23
  51882.351     5.061E-23
  51882.414     4.134E-23
  51882.476     3.604E-23
  51882.538     2.999E-23
  51882.600     2.782E-23
  51882.662     3.406E-23
  51882.724     3.727E-23
  51882.787     3.957E-23
  51882.849     4.286E-23
  51882.911     4.330E-23
  51882.973     4.173E-23
  51883.035     4.475E-23
  51883.097     5.417E-23
  51883.160     5.611E-23
  51883.222     5.629E-23
  51883.284     5.733E-23
  51883.346     5.460E-23
  51883.408     5.289E-23
  51883.471     4.760E-23
  51883.533     4.151E-23
  51883.595     4.177E-23
  51883.657     3.997E-23
  51883.719     3.894E-23
  51883.781     4.716E-23
  51883.844     5.355E-23
  51883.906     5.792E-23
  51883.968     5.763E-23
  51884.030     5.004E-23
  51884.092     4.347E-23
  51884.155     3.505E-23
  51884.217     3.127E-23
  51884.279     2.937E-23
  51884.341     3.207E-23
  51884.403     3.382E-23
  51884.465     2.628E-23
  51884.528     2.710E-23
  51884.590     2.601E-23
  51884.652     1.845E-23
  51884.714     1.564E-23
  51884.776     1.386E-23
  51884.839     1.299E-23
  51884.901     1.113E-23
  51884.963     1.735E-23
  51885.025     2.170E-23
  51885.087     2.147E-23
  51885.149     1.936E-23
  51885.212     1.623E-23
  51885.274     1.942E-23
  51885.336     1.879E-23
  51885.398     2.367E-23
  51885.460     2.223E-23
  51885.522     1.541E-23
  51885.585     1.412E-23
  51885.647     1.091E-23
  51885.709     1.394E-23
  51885.771     1.951E-23
  51885.833     2.438E-23
  51885.896     2.294E-23
  51885.958     1.246E-23
  51886.020     9.435E-24
  51886.082     1.003E-23
  51886.144     1.136E-23
  51886.206     1.147E-23
  51886.269     1.128E-23
  51886.331     9.435E-24
  51886.393     7.068E-24
  51886.455     1.207E-23
  51886.517     1.898E-23
  51886.580     2.228E-23
  51886.642     2.071E-23
  51886.704     2.165E-23
  51886.766     1.873E-23
  51886.828     2.588E-23
  51886.891     3.293E-23
  51886.953     3.359E-23
  51887.015     3.081E-23
  51887.077     2.438E-23
  51887.139     1.795E-23
  51887.201     1.425E-23
  51887.264     1.226E-23
  51887.326     1.782E-23
  51887.388     1.242E-23
  51887.450     7.257E-24
  51887.512     1.160E-23
  51887.575     9.443E-24
  51887.637     7.114E-24
  51887.699     1.108E-23
  51887.761     1.864E-23
  51887.823     2.704E-23
  51887.885     3.633E-23
  51887.948     3.806E-23
  51888.010     3.351E-23
  51888.072     3.031E-23
  51888.134     3.024E-23
  51888.196     2.458E-23
  51888.259     2.256E-23
  51888.321     1.871E-23
  51888.383     1.298E-23
  51888.445     1.202E-23
  51888.507     4.906E-24
  51888.569    -1.134E-24
  51888.632     4.072E-24
  51888.694     8.347E-24
  51888.756     1.221E-23
  51888.818     1.576E-23
  51888.880     1.831E-23
  51888.943     2.656E-23
  51889.005     2.660E-23
  51889.067     2.956E-23
  51889.129     2.876E-23
  51889.191     2.905E-23
  51889.254     2.767E-23
  51889.316     1.790E-23
  51889.378     7.187E-24
  51889.440     8.383E-24
  51889.502     8.577E-24
  51889.564     1.162E-23
  51889.627     1.851E-23
  51889.689     2.734E-23
  51889.751     3.519E-23
  51889.813     3.266E-23
  51889.875     2.729E-23
  51889.938     1.714E-23
  51890.000     1.460E-23
  51890.062     1.893E-23
  51890.124     1.863E-23
  51890.186     1.559E-23
  51890.249     1.173E-23
  51890.311     9.672E-24
  51890.373     8.448E-24
  51890.435     6.116E-24
  51890.497     5.623E-24
  51890.559     9.796E-24
  51890.622     2.042E-23
  51890.684     3.606E-23
  51890.746     4.286E-23
  51890.808     4.399E-23
  51890.870     4.197E-23
  51890.933     4.170E-23
  51890.995     3.277E-23
  51891.057     2.923E-23
  51891.119     2.872E-23
  51891.181     3.002E-23
  51891.244     2.640E-23
  51891.306     2.663E-23
  51891.368     2.182E-23
  51891.430     2.082E-23
  51891.492     2.248E-23
  51891.555     1.220E-23
  51891.617     2.577E-24
  51891.679     1.185E-23
  51891.741     2.030E-23
  51891.803     2.607E-23
  51891.865     2.420E-23
  51891.928     3.065E-23
  51891.990     3.466E-23
  51892.052     3.315E-23
  51892.114     3.066E-23
  51892.176     3.280E-23
  51892.239     1.456E-23
  51892.301     1.743E-24
  51892.363    -6.647E-24
  51892.425    -1.255E-23
  51892.487    -1.470E-23
  51892.550    -1.735E-23
  51892.612    -2.096E-23
  51892.674    -2.208E-23
  51892.736    -1.702E-23
  51892.798    -8.256E-24
  51892.861     4.256E-24
  51892.923     8.614E-24
  51892.985     1.210E-24
  51893.047    -9.690E-24
  51893.109    -9.626E-24
  51893.171    -4.900E-24
  51893.234    -3.903E-24
  51893.296    -1.333E-24
  51893.358    -6.247E-24
  51893.420    -1.042E-23
  51893.482    -4.792E-24
  51893.545    -1.185E-23
  51893.607    -1.882E-23
  51893.669    -2.584E-23
  51893.731    -2.850E-23
  51893.793    -2.849E-23
  51893.856    -2.006E-23
  51893.918    -1.479E-23
  51893.980    -1.850E-23
  51894.042    -2.234E-23
  51894.104    -3.167E-23
  51894.167    -2.958E-23
  51894.229    -1.692E-23
  51894.291    -6.756E-24
  51894.353    -2.657E-24
  51894.415    -6.357E-25
  51894.478    -9.990E-24
  51894.540    -1.665E-23
  51894.602    -1.774E-23
  51894.664    -8.734E-24
  51894.726     7.697E-24
  51894.788     1.509E-23
  51894.851     1.495E-23
  51894.913     1.761E-23
  51894.975     2.027E-23
  51895.037     1.273E-23
  51895.099     5.307E-24
  51895.162     6.256E-24
  51895.224     6.217E-24
  51895.286     2.416E-24
  51895.348    -4.386E-24
  51895.410    -3.854E-24
  51895.473     4.303E-24
  51895.535     1.102E-23
  51895.597     1.057E-23
  51895.659     6.410E-24
  51895.721     5.021E-24
  51895.784     9.257E-24
  51895.846     1.143E-23
  51895.908     8.720E-24
  51895.970     6.077E-24
  51896.032     7.842E-25
  51896.095    -6.406E-24
  51896.157    -9.857E-24
  51896.219    -1.692E-23
  51896.281    -1.763E-23
  51896.343    -1.358E-23
  51896.406    -2.873E-24
  51896.468     1.886E-24
  51896.530     4.187E-24
  51896.592     1.787E-24
  51896.654    -4.621E-24
  51896.717     2.841E-24
  51896.779     8.469E-24
  51896.841     1.731E-23
  51896.903     2.149E-23
  51896.965     1.616E-23
  51897.028     5.334E-24
  51897.090    -6.399E-24
  51897.152    -8.911E-24
  51897.214    -2.196E-24
  51897.276     1.203E-23
  51897.339     3.205E-23
  51897.401     4.196E-23
  51897.463     3.677E-23
  51897.525     2.742E-23
  51897.587     2.228E-23
  51897.650     2.138E-23
  51897.712     1.257E-23
  51897.774     9.440E-24
  51897.836     5.369E-24
  51897.898     7.656E-24
  51897.960     1.076E-23
  51898.023     6.397E-24
  51898.085     2.487E-24
  51898.147    -1.575E-25
  51898.209     5.613E-24
  51898.271     1.337E-23
  51898.334     5.271E-24
  51898.396     1.639E-24
  51898.458     2.338E-24
  51898.520     1.046E-23
  51898.582     2.338E-23
  51898.645     2.417E-23
  51898.707     2.019E-23
  51898.769     2.340E-23
  51898.831     2.835E-23
  51898.893     2.587E-23
  51898.956     1.685E-23
  51899.018     1.589E-24
  51899.080    -3.276E-24
  51899.142    -7.565E-25
  51899.204     3.601E-24
  51899.267     9.090E-24
  51899.329     7.113E-24
  51899.391     1.213E-23
  51899.453     1.689E-23
  51899.515     2.039E-23
  51899.578     1.996E-23
  51899.640     1.397E-23
  51899.702     1.262E-23
  51899.764     1.037E-23
  51899.826     9.516E-25
  51899.889    -2.665E-24
  51899.951    -8.310E-24
  51900.013    -1.594E-23
  51900.075    -1.542E-23
  51900.137    -1.355E-23
  51900.200    -1.163E-23
  51900.262    -2.549E-24
  51900.324     6.187E-24
  51900.386     3.133E-24
  51900.448    -2.623E-24
  51900.511    -8.447E-24
  51900.573    -1.174E-23
  51900.635    -1.153E-23
  51900.697    -5.865E-24
  51900.760    -2.873E-24
  51900.822    -4.508E-24
  51900.884    -1.175E-23
  51900.946    -1.384E-23
  51901.008    -1.236E-23
  51901.071    -1.154E-23
  51901.133    -1.354E-23
  51901.195    -2.118E-23
  51901.257    -2.686E-23
  51901.319    -1.607E-23
  51901.382    -5.027E-24
  51901.444     1.103E-23
  51901.506     1.876E-23
  51901.568     1.972E-23
  51901.630     1.479E-23
  51901.693     1.231E-23
  51901.755     1.460E-23
  51901.817     1.228E-23
  51901.879     1.478E-23
  51901.941     8.374E-24
  51902.004     4.759E-25
  51902.066    -8.546E-24
  51902.128    -1.598E-23
  51902.190    -1.710E-23
  51902.252    -1.736E-23
  51902.315    -1.549E-23
  51902.377    -1.998E-23
  51902.439    -2.365E-23
  51902.501    -1.953E-23
  51902.563    -1.068E-23
  51902.626    -4.315E-25
  51902.688     9.622E-24
  51902.750     1.516E-23
  51902.812     9.869E-24
  51902.874     5.827E-24
  51902.937    -4.724E-24
  51902.999    -7.886E-24
  51903.061    -4.326E-24
  51903.123    -5.254E-24
  51903.185     1.260E-24
  51903.248     1.249E-23
  51903.310     1.351E-23
  51903.372     1.695E-23
  51903.434     2.245E-23
  51903.496     2.103E-23
  51903.559     2.064E-23
  51903.621     2.695E-23
  51903.683     2.635E-23
  51903.745     2.067E-23
  51903.808     1.495E-23
  51903.870     1.342E-23
  51903.932     1.802E-23
  51903.994     1.778E-23
  51904.056     6.368E-24
  51904.119    -3.003E-24
  51904.181    -7.027E-24
  51904.243    -1.017E-24
  51904.305    -7.106E-25
  51904.367    -8.715E-24
  51904.430    -5.927E-24
  51904.492     2.959E-24
  51904.554     1.241E-24
  51904.616     3.645E-24
  51904.678     9.237E-24
  51904.741     1.526E-23
  51904.803     1.657E-23
  51904.865     2.041E-23
  51904.927     2.013E-23
  51904.989     1.699E-23
  51905.052     1.285E-23
  51905.114     1.034E-23
  51905.176     7.737E-24
  51905.238     6.928E-24
  51905.300     1.258E-23
  51905.363     1.664E-23
  51905.425     1.980E-23
  51905.487     2.465E-23
  51905.549     2.085E-23
  51905.612     1.619E-23
  51905.674     1.139E-23
  51905.736    -8.145E-25
  51905.798    -1.556E-23
  51905.860    -2.395E-23
  51905.923    -2.128E-23
  51905.985    -1.118E-23
  51906.047    -7.269E-24
  51906.109    -8.263E-24
  51906.171    -7.587E-24
  51906.234    -5.067E-24
  51906.296     1.721E-26
  51906.358     5.981E-24
  51906.420     7.407E-25
  51906.482    -5.400E-24
  51906.545    -2.503E-24
  51906.607    -1.500E-24
  51906.669    -2.324E-24
  51906.731     1.876E-24
  51906.794     2.451E-24
  51906.856     8.993E-25
  51906.918    -1.847E-24
  51906.980    -9.394E-24
  51907.042    -1.680E-23
  51907.105    -2.125E-23
  51907.167    -2.017E-23
  51907.229    -1.926E-23
  51907.291    -1.569E-23
  51907.353    -1.222E-23
  51907.416    -9.972E-24
  51907.478    -1.500E-23
  51907.540    -1.750E-23
  51907.602    -1.784E-23
  51907.664    -1.807E-23
  51907.727    -1.401E-23
  51907.789     9.718E-25
  51907.851     3.117E-24
  51907.913     2.416E-24
  51907.976     1.754E-24
  51908.038    -6.379E-25
  51908.100    -3.486E-24
  51908.162    -8.435E-24
  51908.224    -1.511E-23
  51908.287    -2.041E-23
  51908.349    -1.762E-23
  51908.411    -1.103E-23
  51908.473     2.129E-24
  51908.535     1.466E-23
  51908.598     1.739E-23
  51908.660     1.337E-23
  51908.722     5.760E-24
  51908.784    -9.896E-25
  51908.846    -8.662E-24
  51908.909    -2.076E-23
  51908.971    -3.332E-23
  51909.033    -3.824E-23
  51909.095    -3.123E-23
  51909.158    -1.594E-23
  51909.220    -2.923E-25
  51909.282     7.720E-24
  51909.344     8.032E-24
  51909.406     5.509E-24
  51909.469    -3.545E-25
  51909.531    -6.192E-24
  51909.593    -7.649E-24
  51909.655    -6.627E-24
  51909.717     1.219E-24
  51909.780     4.084E-24
  51909.842    -5.197E-25
  51909.904     1.278E-24
  51909.966    -1.484E-25
  51910.029     8.264E-25
  51910.091     6.959E-24
  51910.153     9.508E-24
  51910.215     8.993E-24
  51910.277     5.121E-24
  51910.340    -7.940E-25
  51910.402    -3.482E-24
  51910.464    -3.103E-24
  51910.526    -3.830E-24
  51910.588    -5.974E-26
  51910.651     9.490E-24
  51910.713     1.639E-23
  51910.775     2.107E-23
  51910.837     1.788E-23
  51910.900     9.780E-24
  51910.962    -3.044E-24
  51911.024    -1.005E-23
  51911.086    -1.695E-23
  51911.148    -1.213E-23
  51911.211    -7.467E-24
  51911.273    -4.559E-24
  51911.335    -1.100E-23
  51911.397    -1.614E-23
  51911.460    -2.129E-23
  51911.522    -2.373E-23
  51911.584    -2.061E-23
  51911.646    -2.246E-23
  51911.708    -1.958E-23
  51911.771    -2.145E-23
  51911.833    -2.716E-23
  51911.895    -2.442E-23
  51911.957    -1.668E-23
  51912.019    -9.340E-24
  51912.082    -7.823E-24
  51912.144    -6.536E-24
  51912.206    -4.319E-24
  51912.268     1.785E-24
  51912.331     6.079E-24
  51912.393     1.039E-23
  51912.455     1.001E-23
  51912.517     4.842E-24
  51912.579    -5.906E-24
  51912.642    -1.857E-23
  51912.704    -3.000E-23
  51912.766    -3.354E-23
  51912.828    -3.229E-23
  51912.891    -2.712E-23
  51912.953    -1.945E-23
  51913.015    -1.332E-23
  51913.077    -1.666E-23
  51913.139    -2.340E-23
  51913.202    -2.330E-23
  51913.264    -1.828E-23
  51913.326    -5.598E-24
  51913.388     1.730E-24
  51913.450     3.079E-24
  51913.513     1.047E-23
  51913.575     1.730E-23
  51913.637     2.156E-23
  51913.699     2.601E-23
  51913.762     3.286E-23
  51913.824     1.974E-23
  51913.886     8.589E-24
  51913.948     1.158E-24
  51914.010     2.884E-24
  51914.073     9.459E-24
  51914.135     1.693E-23
  51914.197     3.197E-23
  51914.259     3.741E-23
  51914.322     2.906E-23
  51914.384     1.333E-23
  51914.446    -9.017E-25
  51914.508    -2.160E-23
  51914.570    -3.232E-23
  51914.633    -3.188E-23
  51914.695    -1.986E-23
  51914.757    -1.362E-23
  51914.819    -1.828E-23
  51914.882    -1.939E-23
  51914.944    -1.698E-23
  51915.006    -1.208E-23
  51915.068    -5.415E-24
  51915.130    -6.676E-25
  51915.193     2.542E-24
  51915.255     4.336E-24
  51915.317     2.410E-24
  51915.379     8.633E-24
  51915.442     1.066E-23
  51915.504     7.094E-25
  51915.566    -1.113E-23
  51915.628    -1.615E-23
  51915.690    -1.354E-23
  51915.753    -1.005E-23
  51915.815    -9.243E-24
  51915.877    -9.092E-24
  51915.939    -1.643E-23
  51916.002    -2.171E-23
  51916.064    -2.031E-23
  51916.126    -2.245E-23
  51916.188    -1.765E-23
  51916.250    -1.190E-23
  51916.313    -1.667E-23
  51916.375    -1.622E-23
  51916.437    -9.430E-24
  51916.499    -4.673E-24
  51916.562    -2.076E-24
  51916.624     6.760E-24
  51916.686     1.881E-23
  51916.748     2.065E-23
  51916.810     1.550E-23
  51916.873     1.123E-23
  51916.935     1.344E-23
  51916.997     2.038E-23
  51917.059     2.058E-23
  51917.122     1.223E-23
  51917.184     3.948E-24
  51917.246    -4.403E-24
  51917.308    -5.351E-24
  51917.370    -9.075E-24
  51917.433    -1.366E-23
  51917.495    -1.516E-23
  51917.557    -8.703E-24
  51917.619    -1.411E-24
  51917.682    -6.370E-24
  51917.744    -8.587E-24
  51917.806    -7.603E-24
  51917.868    -8.648E-24
  51917.930    -1.153E-23
  51917.993    -1.437E-23
  51918.055    -1.282E-23
  51918.117    -4.136E-24
  51918.179     2.028E-24
  51918.242     3.826E-24
  51918.304    -1.448E-24
  51918.366    -8.843E-24
  51918.428    -1.569E-23
  51918.491    -2.629E-23
  51918.553    -3.239E-23
  51918.615    -3.043E-23
  51918.677    -2.202E-23
  51918.739    -1.261E-23
  51918.802    -8.481E-24
  51918.864    -4.617E-24
  51918.926     3.640E-25
  51918.988    -1.081E-23
  51919.051    -2.485E-23
  51919.113    -3.169E-23
  51919.175    -3.036E-23
  51919.237    -3.109E-23
  51919.299    -3.458E-23
  51919.362    -2.980E-23
  51919.424    -2.944E-23
  51919.486    -2.592E-23
  51919.548    -1.540E-23
  51919.617    -1.093E-23
