 16O18O;(3,0);79K;51200-350 cm-1;2469 pts
     WNO          SIG
  51200.012    7.1477E-24
  51200.070    2.4861E-24
  51200.133   -3.1077E-25
  51200.195   -4.0400E-24
  51200.258   -4.1264E-25
  51200.320    2.4861E-24
  51200.383    7.1477E-24
  51200.441    1.4607E-23
  51200.496    1.5539E-23
  51200.555    1.4607E-23
  51200.617    9.9447E-24
  51200.680    7.1477E-24
  51200.742    1.2741E-23
  51200.805    1.0877E-23
  51200.867    7.1477E-24
  51200.926    2.4861E-24
  51200.980    7.1477E-24
  51201.039    1.4607E-23
  51201.102    1.0877E-23
  51201.164    7.1477E-24
  51201.227    3.4184E-24
  51201.289    9.9447E-24
  51201.352    7.1477E-24
  51201.414    1.2741E-23
  51201.465    2.2064E-23
  51201.527    2.4861E-23
  51201.586    2.2997E-23
  51201.648    1.7403E-23
  51201.711    1.0877E-23
  51201.773    9.9447E-24
  51201.836    1.7403E-23
  51201.898    2.2997E-23
  51201.957    1.7403E-23
  51202.012    1.0877E-23
  51202.070    5.2831E-24
  51202.133    6.2154E-25
  51202.195   -2.1753E-24
  51202.258   -6.8369E-24
  51202.320   -2.1753E-24
  51202.383    5.2831E-24
  51202.441    1.0877E-23
  51202.496    1.2741E-23
  51202.555    8.0800E-24
  51202.617    2.4861E-24
  51202.680   -2.1753E-24
  51202.742   -3.1077E-25
  51202.805    5.2831E-24
  51202.867    9.9447E-24
  51202.930    1.2741E-23
  51202.980    1.5539E-23
  51203.043    1.0877E-23
  51203.102    5.2831E-24
  51203.164   -4.0400E-24
  51203.227   -4.9723E-24
  51203.289    6.2154E-25
  51203.352    5.2831E-24
  51203.414    1.0877E-23
  51203.473    1.8336E-23
  51203.527    1.4607E-23
  51203.586    7.1477E-24
  51203.648    2.4861E-24
  51203.711   -4.9723E-24
  51203.773   -4.0400E-24
  51203.836    2.4861E-24
  51203.898    7.1477E-24
  51203.957    1.2741E-23
  51204.012    9.9447E-24
  51204.074    3.4184E-24
  51204.133    8.0800E-24
  51204.195    1.4607E-23
  51204.258    8.0800E-24
  51204.320    3.4184E-24
  51204.383   -3.1077E-25
  51204.445   -4.0400E-24
  51204.496   -7.8026E-24
  51204.559   -8.4994E-24
  51204.617   -8.2980E-24
  51204.680   -8.5530E-24
  51204.742    6.2154E-25
  51204.805    5.2831E-24
  51204.867    3.4184E-24
  51204.930   -2.1753E-24
  51204.988   -7.7692E-24
  51205.043   -6.8369E-24
  51205.102    6.2154E-25
  51205.164    1.5899E-23
  51205.227    3.1095E-23
  51205.289    3.0442E-23
  51205.352   -4.0258E-24
  51205.414   -6.8369E-24
  51205.477   -3.1077E-25
  51205.527    5.2831E-24
  51205.590    1.4585E-23
  51205.648    2.2064E-23
  51205.711    1.8336E-23
  51205.773    1.4607E-23
  51205.836    8.0800E-24
  51205.898    1.5539E-23
  51205.961    2.2668E-23
  51206.012    1.3747E-24
  51206.074    3.4702E-25
  51206.133    9.4933E-24
  51206.195    3.4924E-24
  51206.258    1.0313E-23
  51206.320    2.8708E-23
  51206.383    3.4790E-23
  51206.445    3.9850E-23
  51206.504    2.5279E-23
  51206.559    8.9091E-24
  51206.617    5.2831E-24
  51206.680    1.0877E-23
  51206.742    1.5539E-23
  51206.805    1.2741E-23
  51206.867    8.0800E-24
  51206.930    1.6053E-23
  51206.992    1.7239E-23
  51207.043    5.7724E-24
  51207.105    5.5181E-24
  51207.164    2.2602E-23
  51207.227    3.9264E-23
  51207.289    4.7889E-23
  51207.352    5.3723E-23
  51207.414    5.2527E-23
  51207.477    3.7039E-23
  51207.535    1.2098E-23
  51207.590    3.9523E-24
  51207.648    1.3727E-23
  51207.711    3.0304E-23
  51207.773    3.5117E-23
  51207.836    3.7913E-23
  51207.898    3.2320E-23
  51207.961    2.7659E-23
  51208.020    2.5793E-23
  51208.074    3.0456E-23
  51208.137    3.6981E-23
  51208.195    3.3252E-23
  51208.258    2.7659E-23
  51208.320    2.2997E-23
  51208.383    3.0456E-23
  51208.445    3.6981E-23
  51208.508    4.2576E-23
  51208.559    4.1534E-23
  51208.621    3.5104E-23
  51208.680    3.4562E-23
  51208.742    4.1760E-23
  51208.805    3.7561E-23
  51208.867    2.9412E-23
  51208.930    8.7116E-24
  51208.992   -6.6238E-24
  51209.051   -4.5534E-24
  51209.105    1.1600E-23
  51209.164    3.9874E-23
  51209.227    5.0294E-23
  51209.289    3.5863E-23
  51209.352    2.5808E-23
  51209.414    1.1792E-23
  51209.477   -2.1711E-23
  51209.539   -4.7066E-23
  51209.590   -5.1954E-23
  51209.652   -3.7807E-23
  51209.711   -1.7631E-23
  51209.773   -8.2940E-24
  51209.836   -5.5530E-24
  51209.898   -1.2000E-23
  51209.961   -2.0772E-23
  51210.023   -8.2485E-24
  51210.082    7.8089E-24
  51210.137    1.4172E-23
  51210.195    9.6408E-24
  51210.258   -1.6646E-23
  51210.320   -4.4859E-23
  51210.383   -5.2151E-23
  51210.445   -4.8300E-23
  51210.508   -1.9748E-23
  51210.566    2.2737E-23
  51210.621    4.9006E-23
  51210.684    5.2211E-23
  51210.742    5.1219E-23
  51210.805    4.8406E-23
  51210.867    5.3526E-23
  51210.930    6.6625E-23
  51210.992    5.8311E-23
  51211.055    3.4688E-23
  51211.105    4.3921E-24
  51211.168   -1.7693E-23
  51211.227   -1.2072E-23
  51211.289    8.9022E-25
  51211.352    8.0172E-24
  51211.414    2.9377E-23
  51211.477    5.5048E-23
  51211.539    8.4149E-23
  51211.598    1.0507E-22
  51211.652    1.0529E-22
  51211.711    1.0892E-22
  51211.773    1.0662E-22
  51211.836    9.8572E-23
  51211.898    7.5668E-23
  51211.961    4.5483E-23
  51212.023    3.8906E-23
  51212.086    7.7950E-23
  51212.137    1.1668E-22
  51212.199    1.4725E-22
  51212.258    1.5040E-22
  51212.320    1.3931E-22
  51212.383    1.4717E-22
  51212.445    1.6212E-22
  51212.508    1.7286E-22
  51212.570    1.9043E-22
  51212.629    1.9703E-22
  51212.684    1.7612E-22
  51212.742    1.5891E-22
  51212.805    1.5634E-22
  51212.867    1.5261E-22
  51212.930    1.5162E-22
  51212.992    1.4578E-22
  51213.055    1.3780E-22
  51213.117    1.2624E-22
  51213.168    1.0316E-22
  51213.230    8.6851E-23
  51213.289    8.5211E-23
  51213.352    8.3433E-23
  51213.414    7.0420E-23
  51213.477    5.0767E-23
  51213.539    4.2655E-23
  51213.602    5.7228E-23
  51213.660    7.3570E-23
  51213.715    8.3999E-23
  51213.773    9.6243E-23
  51213.836    1.0022E-22
  51213.898    9.5264E-23
  51213.961    7.1910E-23
  51214.023    4.8260E-23
  51214.086    4.7818E-23
  51214.145    4.5539E-23
  51214.199    5.4494E-23
  51214.262    6.4862E-23
  51214.320    8.3411E-23
  51214.383    8.3504E-23
  51214.445    7.6454E-23
  51214.508    4.5272E-23
  51214.570    2.9707E-24
  51214.633   -1.6803E-23
  51214.684   -1.4754E-23
  51214.746   -1.1510E-23
  51214.805   -1.1411E-23
  51214.867    1.4460E-24
  51214.930   -1.8724E-24
  51214.992   -1.0184E-23
  51215.055   -2.0533E-24
  51215.117    9.4571E-25
  51215.176    4.2322E-24
  51215.230    1.3571E-23
  51215.289    1.9596E-23
  51215.352    3.6616E-23
  51215.414    4.6768E-23
  51215.477    5.9381E-23
  51215.539    6.9406E-23
  51215.602    7.2151E-23
  51215.664    8.9801E-23
  51215.715    1.0290E-22
  51215.777    8.9805E-23
  51215.836    5.7892E-23
  51215.898    3.1651E-23
  51215.961    2.1293E-23
  51216.023    5.2031E-24
  51216.086   -4.1590E-24
  51216.148   -2.2921E-24
  51216.207   -1.4281E-24
  51216.262    4.7131E-24
  51216.320    2.2600E-23
  51216.383    2.3065E-23
  51216.445    2.0081E-23
  51216.508    1.7684E-23
  51216.570    1.1096E-23
  51216.633    6.3532E-24
  51216.695    7.1162E-24
  51216.746    2.3108E-23
  51216.809    5.8882E-23
  51216.867    8.1756E-23
  51216.930    1.0721E-22
  51216.992    1.1706E-22
  51217.055    1.0248E-22
  51217.117    7.9136E-23
  51217.180    6.1371E-23
  51217.238    5.9586E-23
  51217.293    6.9846E-23
  51217.352    6.7528E-23
  51217.414    5.5088E-23
  51217.477    4.6629E-23
  51217.539    4.8462E-23
  51217.602    5.6420E-23
  51217.664    5.1436E-23
  51217.727    4.2266E-23
  51217.777    4.1483E-23
  51217.840    4.4473E-23
  51217.898    4.8340E-23
  51217.961    5.8673E-23
  51218.023    8.1350E-23
  51218.086    8.0034E-23
  51218.148    7.6731E-23
  51218.211    7.2183E-23
  51218.270    6.5919E-23
  51218.324    5.9599E-23
  51218.383    6.2993E-23
  51218.445    6.6982E-23
  51218.508    6.1872E-23
  51218.570    6.4351E-23
  51218.633    7.8991E-23
  51218.695    9.3917E-23
  51218.758    9.3044E-23
  51218.809    8.1921E-23
  51218.871    8.4601E-23
  51218.930    8.3282E-23
  51218.992    6.7316E-23
  51219.055    5.7124E-23
  51219.117    4.9201E-23
  51219.180    3.3297E-23
  51219.242    3.2207E-23
  51219.301    4.3973E-23
  51219.355    5.8141E-23
  51219.414    6.7555E-23
  51219.477    7.1592E-23
  51219.539    6.6187E-23
  51219.602    4.4926E-23
  51219.664    3.5361E-23
  51219.727    3.6262E-23
  51219.789    2.4473E-23
  51219.840    7.2738E-24
  51219.902    2.4868E-24
  51219.961   -3.7978E-24
  51220.023   -1.8183E-23
  51220.086   -3.0193E-23
  51220.148   -3.7452E-23
  51220.211   -3.0248E-23
  51220.273   -1.6674E-23
  51220.332    4.6749E-24
  51220.387    2.6325E-23
  51220.445    3.6495E-23
  51220.508    4.6916E-23
  51220.570    5.4837E-23
  51220.633    4.4136E-23
  51220.695    2.9618E-23
  51220.758    6.8300E-24
  51220.820   -1.8510E-23
  51220.871   -1.8002E-23
  51220.934    1.0050E-24
  51220.992    2.0672E-23
  51221.055    4.6875E-23
  51221.117    7.3952E-23
  51221.180    9.7147E-23
  51221.242    1.1175E-22
  51221.305    1.0031E-22
  51221.363    9.2840E-23
  51221.418    1.0146E-22
  51221.477    8.6731E-23
  51221.539    7.0402E-23
  51221.602    7.5646E-23
  51221.664    8.0533E-23
  51221.727    6.2511E-23
  51221.789    5.0524E-23
  51221.852    5.1558E-23
  51221.902    5.9575E-23
  51221.965    5.9286E-23
  51222.023    5.2651E-23
  51222.086    2.8438E-23
  51222.148    2.7064E-23
  51222.211    5.1623E-23
  51222.273    7.3324E-23
  51222.336    7.4130E-23
  51222.395    7.2129E-23
  51222.449    8.6773E-23
  51222.508    8.2642E-23
  51222.570    6.4467E-23
  51222.633    4.8984E-23
  51222.695    3.0113E-23
  51222.758    5.0387E-24
  51222.820   -1.0060E-23
  51222.883    2.1466E-24
  51222.934    2.9991E-23
  51222.996    2.9172E-23
  51223.055    3.1306E-23
  51223.117    3.0506E-23
  51223.180    1.5064E-23
  51223.242    5.8471E-24
  51223.305    2.7900E-24
  51223.367   -1.2310E-23
  51223.426   -2.4857E-23
  51223.480   -2.7909E-23
  51223.539   -2.6931E-23
  51223.602   -1.8002E-23
  51223.664   -3.0656E-25
  51223.727    1.6620E-23
  51223.789    3.5858E-23
  51223.852    2.3472E-23
  51223.914    1.2405E-23
  51223.965    4.1658E-24
  51224.027    5.8869E-24
  51224.086    2.6304E-23
  51224.148    2.9674E-23
  51224.211    1.7369E-23
  51224.273    2.5055E-23
  51224.336    1.7814E-23
  51224.398    9.9030E-24
  51224.457    1.0358E-23
  51224.512    2.5971E-23
  51224.570    4.7930E-23
  51224.633    6.1825E-23
  51224.695    6.0878E-23
  51224.758    5.4809E-23
  51224.820    5.6957E-23
  51224.883    6.0094E-23
  51224.945    5.4929E-23
  51224.996    6.1868E-23
  51225.059    4.2502E-23
  51225.117    3.7956E-23
  51225.180    5.4038E-23
  51225.242    5.7416E-23
  51225.305    5.3263E-23
  51225.367    5.4777E-23
  51225.430    5.2281E-23
  51225.488    5.8449E-23
  51225.543    5.1069E-23
  51225.602    5.7051E-23
  51225.664    6.8449E-23
  51225.727    9.0533E-23
  51225.789    1.2432E-22
  51225.852    1.2539E-22
  51225.914    1.0829E-22
  51225.977    9.4949E-23
  51226.027    8.5226E-23
  51226.090    7.7040E-23
  51226.148    6.6775E-23
  51226.211    6.5100E-23
  51226.273    7.5261E-23
  51226.336    7.1988E-23
  51226.398    5.1210E-23
  51226.461    3.4631E-23
  51226.520    4.3490E-23
  51226.574    5.4853E-23
  51226.633    6.8778E-23
  51226.695    8.5912E-23
  51226.758    8.0748E-23
  51226.820    7.3719E-23
  51226.883    8.5981E-23
  51226.945    1.0141E-22
  51227.008    1.3096E-22
  51227.066    1.6293E-22
  51227.121    1.8333E-22
  51227.180    2.5489E-22
  51227.242    2.8897E-22
  51227.305    3.0422E-22
  51227.367    3.0966E-22
  51227.430    2.6227E-22
  51227.492    2.9642E-22
  51227.551    2.8482E-22
  51227.605    2.8213E-22
  51227.668    2.3467E-22
  51227.727    2.6716E-22
  51227.789    2.7756E-22
  51227.852    2.8224E-22
  51227.914    2.7131E-22
  51227.977    2.5763E-22
  51228.039    2.6289E-22
  51228.098    2.7185E-22
  51228.152    2.6859E-22
  51228.211    2.5687E-22
  51228.273    2.3503E-22
  51228.336    2.2839E-22
  51228.398    2.2648E-22
  51228.461    2.2733E-22
  51228.523    2.2970E-22
  51228.586    2.0301E-22
  51228.637    1.7402E-22
  51228.699    1.5808E-22
  51228.758    1.7171E-22
  51228.820    1.6461E-22
  51228.883    1.4315E-22
  51228.945    1.2948E-22
  51229.008    1.2480E-22
  51229.070    1.2729E-22
  51229.129    1.3999E-22
  51229.184    1.5607E-22
  51229.242    1.5676E-22
  51229.305    1.5935E-22
  51229.367    1.3038E-22
  51229.430    1.0658E-22
  51229.492    1.1221E-22
  51229.555    1.1359E-22
  51229.617    1.2518E-22
  51229.668    1.2057E-22
  51229.730    1.0567E-22
  51229.789    9.0744E-23
  51229.852    8.3287E-23
  51229.914    9.0744E-23
  51229.977    1.0007E-22
  51230.039    9.8203E-23
  51230.102    8.5151E-23
  51230.160    7.3963E-23
  51230.215    6.6971E-23
  51230.273    5.1588E-23
  51230.336    6.0911E-23
  51230.398    6.6504E-23
  51230.461    5.9047E-23
  51230.523    4.4129E-23
  51230.586    3.4807E-23
  51230.648    4.3918E-23
  51230.707    5.2926E-23
  51230.762    4.6775E-23
  51230.820    5.8660E-23
  51230.883    6.7546E-23
  51230.945    6.8847E-23
  51231.008    6.0458E-23
  51231.070    4.5324E-23
  51231.133    3.8082E-23
  51231.191    3.2327E-23
  51231.246    3.5647E-23
  51231.309    2.8884E-23
  51231.367    1.7546E-23
  51231.430    2.7607E-23
  51231.492    5.5061E-23
  51231.555    7.8165E-23
  51231.617    8.6416E-23
  51231.680    7.3997E-23
  51231.738    7.0458E-23
  51231.793    6.9293E-23
  51231.852    6.6063E-23
  51231.914    7.8856E-23
  51231.977    9.1415E-23
  51232.039    9.7841E-23
  51232.102    8.5515E-23
  51232.164    6.8502E-23
  51232.227    8.0969E-23
  51232.277    1.0812E-22
  51232.340    1.3276E-22
  51232.398    1.4977E-22
  51232.461    1.5978E-22
  51232.523    1.5054E-22
  51232.586    1.3224E-22
  51232.648    1.1655E-22
  51232.711    1.0134E-22
  51232.770    1.0209E-22
  51232.824    1.1150E-22
  51232.883    1.3558E-22
  51232.945    1.4808E-22
  51233.008    1.5174E-22
  51233.070    1.4317E-22
  51233.133    1.1760E-22
  51233.195    1.1547E-22
  51233.258    1.2934E-22
  51233.316    1.4777E-22
  51233.371    1.2341E-22
  51233.430    9.7710E-23
  51233.492    8.4138E-23
  51233.555    7.9334E-23
  51233.617    8.1464E-23
  51233.680    6.7579E-23
  51233.742    5.0715E-23
  51233.801    5.6890E-23
  51233.855    6.5810E-23
  51233.918    4.7452E-23
  51233.977    2.2174E-23
  51234.039   -2.8834E-24
  51234.102    3.1247E-24
  51234.164    3.4167E-23
  51234.227    5.3368E-23
  51234.289    6.3814E-23
  51234.348    6.4136E-23
  51234.402    7.2272E-23
  51234.461    7.7564E-23
  51234.523    9.0005E-23
  51234.586    9.0425E-23
  51234.648    7.0831E-23
  51234.711    4.9588E-23
  51234.773    4.7468E-23
  51234.836    3.9372E-23
  51234.887    3.0052E-23
  51234.949    2.7037E-23
  51235.008    4.0198E-23
  51235.070    4.7344E-23
  51235.133    4.1690E-23
  51235.195    2.5554E-23
  51235.258   -2.3286E-24
  51235.320   -5.4005E-24
  51235.379    8.6465E-24
  51235.434    1.0658E-23
  51235.496    1.8259E-23
  51235.555    2.3112E-23
  51235.617    3.5943E-23
  51235.680    4.8136E-23
  51235.742    5.0129E-23
  51235.805    5.4488E-23
  51235.867    5.9987E-23
  51235.926    5.4054E-23
  51235.980    4.0654E-23
  51236.039    2.1940E-23
  51236.102    1.0064E-23
  51236.164    1.6690E-23
  51236.227    3.3108E-23
  51236.289    4.8578E-23
  51236.352    7.0828E-23
  51236.414    6.4188E-23
  51236.465    5.4238E-23
  51236.527    4.3545E-23
  51236.586    3.3393E-23
  51236.648    3.3263E-23
  51236.711    1.1697E-23
  51236.773   -1.5478E-23
  51236.836   -2.9014E-23
  51236.898   -2.0675E-23
  51236.957   -5.8569E-24
  51237.012    3.6429E-24
  51237.070    1.4472E-23
  51237.133    3.1023E-23
  51237.195    5.2409E-23
  51237.258    5.2240E-23
  51237.320    4.2045E-23
  51237.383    1.8178E-23
  51237.445    9.3446E-24
  51237.504    2.8730E-23
  51237.559    6.2859E-23
  51237.617    8.1100E-23
  51237.680    8.3293E-23
  51237.742    8.6500E-23
  51237.805    9.2236E-23
  51237.867    8.6302E-23
  51237.930    6.9592E-23
  51237.992    6.0563E-23
  51238.043    7.1078E-23
  51238.105    7.4336E-23
  51238.164    7.4273E-23
  51238.227    7.6984E-23
  51238.289    6.5496E-23
  51238.352    5.6755E-23
  51238.414    6.0515E-23
  51238.477    5.6920E-23
  51238.535    6.7410E-23
  51238.590    8.7120E-23
  51238.648    7.9260E-23
  51238.711    4.0993E-23
  51238.773    1.6593E-23
  51238.836    1.3962E-23
  51238.898    3.5185E-23
  51238.961    5.7210E-23
  51239.023    7.6818E-23
  51239.082    7.8498E-23
  51239.137    5.6604E-23
  51239.195    4.1299E-23
  51239.258    3.9588E-23
  51239.320    4.9987E-23
  51239.383    4.9138E-23
  51239.445    4.9896E-23
  51239.508    4.7900E-23
  51239.570    3.6402E-23
  51239.621    3.6584E-23
  51239.684    5.8728E-23
  51239.742    8.2974E-23
  51239.805    1.0590E-22
  51239.867    1.2116E-22
  51239.930    1.2142E-22
  51239.992    1.0762E-22
  51240.055    9.5105E-23
  51240.113    8.0114E-23
  51240.168    8.8826E-23
  51240.227    1.0516E-22
  51240.289    1.0733E-22
  51240.352    1.1578E-22
  51240.414    1.2319E-22
  51240.477    1.3761E-22
  51240.539    1.6298E-22
  51240.602    1.8597E-22
  51240.660    2.0158E-22
  51240.715    1.9510E-22
  51240.773    1.8749E-22
  51240.836    1.9012E-22
  51240.898    2.1219E-22
  51240.961    2.2240E-22
  51241.023    2.4329E-22
  51241.086    2.8706E-22
  51241.148    3.3803E-22
  51241.199    3.7694E-22
  51241.262    4.0172E-22
  51241.320    4.1112E-22
  51241.383    4.1832E-22
  51241.445    4.4105E-22
  51241.508    4.6740E-22
  51241.570    4.6879E-22
  51241.633    4.6453E-22
  51241.691    4.4320E-22
  51241.746    4.1825E-22
  51241.805    3.9162E-22
  51241.867    3.7974E-22
  51241.930    3.9221E-22
  51241.992    4.1874E-22
  51242.055    4.0917E-22
  51242.117    3.7896E-22
  51242.180    3.6127E-22
  51242.238    3.4784E-22
  51242.293    3.3747E-22
  51242.352    3.4220E-22
  51242.414    3.4653E-22
  51242.477    3.4877E-22
  51242.539    3.2557E-22
  51242.602    3.0606E-22
  51242.664    2.8981E-22
  51242.727    2.6901E-22
  51242.777    2.6091E-22
  51242.840    2.5949E-22
  51242.898    2.6966E-22
  51242.961    2.7141E-22
  51243.023    2.5517E-22
  51243.086    2.4626E-22
  51243.148    2.1769E-22
  51243.211    1.8820E-22
  51243.270    1.5438E-22
  51243.324    1.3237E-22
  51243.383    1.2100E-22
  51243.445    1.2388E-22
  51243.508    1.2965E-22
  51243.570    1.3308E-22
  51243.633    1.3149E-22
  51243.695    1.2259E-22
  51243.758    1.3148E-22
  51243.816    1.5074E-22
  51243.871    1.6708E-22
  51243.930    1.5794E-22
  51243.992    1.6064E-22
  51244.055    1.6581E-22
  51244.117    1.6864E-22
  51244.180    1.6714E-22
  51244.242    1.4985E-22
  51244.305    1.5518E-22
  51244.355    1.7647E-22
  51244.418    1.7358E-22
  51244.477    1.6961E-22
  51244.539    1.7632E-22
  51244.602    1.8266E-22
  51244.664    2.0337E-22
  51244.727    2.0863E-22
  51244.789    2.4400E-22
  51244.848    2.4886E-22
  51244.902    2.5461E-22
  51244.965    2.5515E-22
  51245.023    2.4894E-22
  51245.086    2.4292E-22
  51245.148    2.3603E-22
  51245.211    2.1881E-22
  51245.273    2.2359E-22
  51245.336    2.3395E-22
  51245.395    2.3918E-22
  51245.449    2.4005E-22
  51245.508    2.4253E-22
  51245.570    2.4786E-22
  51245.633    2.5782E-22
  51245.695    2.4360E-22
  51245.758    2.4005E-22
  51245.820    2.2366E-22
  51245.883    2.2861E-22
  51245.941    2.3380E-22
  51245.996    2.4060E-22
  51246.055    2.6256E-22
  51246.117    2.9048E-22
  51246.180    3.0597E-22
  51246.242    3.1264E-22
  51246.305    3.1666E-22
  51246.367    3.2562E-22
  51246.430    3.2919E-22
  51246.480    3.2357E-22
  51246.543    3.1427E-22
  51246.602    2.9590E-22
  51246.664    2.8673E-22
  51246.727    2.8604E-22
  51246.789    2.7987E-22
  51246.852    2.6646E-22
  51246.914    2.4859E-22
  51246.973    2.2855E-22
  51247.027    2.1315E-22
  51247.090    2.1438E-22
  51247.148    2.1799E-22
  51247.211    2.0761E-22
  51247.273    1.8776E-22
  51247.336    1.6627E-22
  51247.398    1.4104E-22
  51247.461    1.0265E-22
  51247.520    8.0820E-23
  51247.574    7.5162E-23
  51247.633    7.5796E-23
  51247.695    6.9644E-23
  51247.758    6.3741E-23
  51247.820    7.1266E-23
  51247.883    8.3952E-23
  51247.945    8.4356E-23
  51248.008    8.9266E-23
  51248.059    8.7564E-23
  51248.121    9.0316E-23
  51248.180    1.0217E-22
  51248.242    7.0016E-23
  51248.305    1.0522E-22
  51248.367    2.8358E-23
  51248.430    3.7348E-23
  51248.492    3.6966E-23
  51248.555    2.7978E-23
  51248.605    2.5483E-23
  51248.668    3.6671E-23
  51248.727    2.9212E-23
  51248.789    3.4807E-23
  51248.852    4.4129E-23
  51248.914    4.9723E-23
  51248.977    5.1588E-23
  51249.039    6.0911E-23
  51249.098    5.5317E-23
  51249.152    5.0009E-23
  51249.211    4.0400E-23
  51249.273    3.4807E-23
  51249.336    5.1588E-23
  51249.398    6.6504E-23
  51249.461    7.3963E-23
  51249.523    8.3287E-23
  51249.586    7.5828E-23
  51249.645    7.0233E-23
  51249.699    7.0948E-23
  51249.758    5.5889E-23
  51249.820    6.2218E-23
  51249.883    5.7823E-23
  51249.945    5.8482E-23
  51250.008    4.6636E-23
  51250.070    2.0523E-23
  51250.133    1.8907E-23
  51250.184    2.6006E-23
  51250.246    5.7641E-23
  51250.305    7.9544E-23
  51250.367    9.1164E-23
  51250.430    9.9484E-23
  51250.492    1.1032E-22
  51250.555    1.0941E-22
  51250.617    9.0012E-23
  51250.680    8.7481E-23
  51250.730    8.7946E-23
  51250.793    9.0569E-23
  51250.852    9.9399E-23
  51250.914    9.5153E-23
  51250.977    7.2600E-23
  51251.039    6.1458E-23
  51251.102    5.8547E-23
  51251.164    5.9157E-23
  51251.223    8.0726E-23
  51251.277    1.0977E-22
  51251.340    1.1859E-22
  51251.398    1.1762E-22
  51251.461    1.1462E-22
  51251.523    1.1606E-22
  51251.586    1.1412E-22
  51251.648    9.0516E-23
  51251.711    7.1954E-23
  51251.770    6.2278E-23
  51251.824    7.8318E-23
  51251.883    1.1032E-22
  51251.945    1.3077E-22
  51252.008    1.2787E-22
  51252.070    1.0806E-22
  51252.133    1.0999E-22
  51252.195    1.1390E-22
  51252.258    1.2424E-22
  51252.316    1.4333E-22
  51252.371    1.4309E-22
  51252.430    1.2732E-22
  51252.492    1.0665E-22
  51252.555    9.4356E-23
  51252.617    1.0941E-22
  51252.680    1.2309E-22
  51252.742    1.1015E-22
  51252.805    1.0553E-22
  51252.855    1.2164E-22
  51252.918    1.3338E-22
  51252.977    1.7031E-22
  51253.039    1.9890E-22
  51253.102    2.1218E-22
  51253.164    2.1308E-22
  51253.227    2.1473E-22
  51253.289    2.2988E-22
  51253.348    2.4596E-22
  51253.402    2.5492E-22
  51253.465    2.6968E-22
  51253.523    2.7077E-22
  51253.586    2.6178E-22
  51253.648    2.6855E-22
  51253.711    2.8558E-22
  51253.773    3.0520E-22
  51253.836    3.4386E-22
  51253.895    3.7807E-22
  51253.949    4.2120E-22
  51254.008    4.5794E-22
  51254.070    4.7186E-22
  51254.133    4.7401E-22
  51254.195    4.8438E-22
  51254.258    4.9685E-22
  51254.320    5.1110E-22
  51254.383    5.2957E-22
  51254.441    5.6271E-22
  51254.496    6.0962E-22
  51254.555    6.2560E-22
  51254.617    6.1475E-22
  51254.680    5.8764E-22
  51254.742    5.7783E-22
  51254.805    6.3563E-22
  51254.867    6.4140E-22
  51254.930    6.3630E-22
  51254.988    5.4373E-22
  51255.043    5.3805E-22
  51255.102    5.4001E-22
  51255.164    5.0937E-22
  51255.227    4.7874E-22
  51255.289    4.6032E-22
  51255.352    4.3812E-22
  51255.414    4.0993E-22
  51255.477    3.8840E-22
  51255.527    3.6753E-22
  51255.590    3.4053E-22
  51255.648    3.1949E-22
  51255.711    3.1662E-22
  51255.773    3.1745E-22
  51255.836    3.1534E-22
  51255.898    3.0269E-22
  51255.961    2.9738E-22
  51256.020    3.0200E-22
  51256.074    2.9323E-22
  51256.137    2.6657E-22
  51256.195    2.4433E-22
  51256.258    2.1138E-22
  51256.320    1.8018E-22
  51256.383    1.6267E-22
  51256.445    1.5428E-22
  51256.508    1.5936E-22
  51256.566    1.7706E-22
  51256.621    1.9987E-22
  51256.684    2.0205E-22
  51256.742    1.9647E-22
  51256.805    2.0508E-22
  51256.867    2.0128E-22
  51256.930    1.8016E-22
  51256.992    1.7715E-22
  51257.055    1.8016E-22
  51257.113    2.0342E-22
  51257.168    2.1757E-22
  51257.227    2.2908E-22
  51257.289    2.4331E-22
  51257.352    2.3845E-22
  51257.414    2.2752E-22
  51257.477    2.1960E-22
  51257.539    2.2141E-22
  51257.602    2.2411E-22
  51257.660    2.1639E-22
  51257.715    2.2389E-22
  51257.773    2.4602E-22
  51257.836    2.6873E-22
  51257.898    2.9859E-22
  51257.961    3.1347E-22
  51258.023    2.9181E-22
  51258.086    3.0144E-22
  51258.148    3.4475E-22
  51258.199    3.6160E-22
  51258.262    3.7235E-22
  51258.320    3.8426E-22
  51258.383    4.0118E-22
  51258.445    4.1375E-22
  51258.508    4.0072E-22
  51258.570    4.0544E-22
  51258.633    3.9657E-22
  51258.695    3.7811E-22
  51258.746    3.5419E-22
  51258.809    3.2915E-22
  51258.867    3.2433E-22
  51258.930    3.2595E-22
  51258.992    3.1768E-22
  51259.055    3.1023E-22
  51259.117    3.0482E-22
  51259.180    2.9197E-22
  51259.238    2.9954E-22
  51259.293    3.0973E-22
  51259.355    3.1536E-22
  51259.414    3.1075E-22
  51259.477    2.9969E-22
  51259.539    2.5228E-22
  51259.602    2.3378E-22
  51259.664    2.3139E-22
  51259.727    2.7024E-22
  51259.785    2.4468E-22
  51259.840    2.3978E-22
  51259.902    2.2766E-22
  51259.961    2.1162E-22
  51260.023    2.0324E-22
  51260.086    1.9450E-22
  51260.148    1.6263E-22
  51260.211    1.6487E-22
  51260.273    1.7827E-22
  51260.332    1.9143E-22
  51260.387    2.2268E-22
  51260.445    2.2326E-22
  51260.508    2.1468E-22
  51260.570    1.7112E-22
  51260.633    1.5359E-22
  51260.695    1.4003E-22
  51260.758    1.3208E-22
  51260.820    1.1237E-22
  51260.879    1.2344E-22
  51260.934    1.2841E-22
  51260.992    1.2562E-22
  51261.055    1.2518E-22
  51261.117    1.3504E-22
  51261.180    1.2465E-22
  51261.242    1.6544E-22
  51261.305    7.8289E-23
  51261.367    7.9738E-23
  51261.426    6.9348E-23
  51261.480    5.8374E-23
  51261.539    6.5806E-23
  51261.602    8.0400E-23
  51261.664    8.8565E-23
  51261.727    8.4382E-23
  51261.789    6.6487E-23
  51261.852    6.3493E-23
  51261.914    5.4345E-23
  51261.965    5.6076E-23
  51262.027    7.1756E-23
  51262.086    8.9051E-23
  51262.148    1.1427E-22
  51262.211    1.1712E-22
  51262.273    1.0679E-22
  51262.336    1.0328E-22
  51262.398    1.0983E-22
  51262.461    1.0305E-22
  51262.512    9.0396E-23
  51262.574    8.8749E-23
  51262.633    9.9026E-23
  51262.695    1.2738E-22
  51262.758    1.3891E-22
  51262.820    1.3517E-22
  51262.883    1.4521E-22
  51262.945    1.4627E-22
  51263.008    1.2503E-22
  51263.059    1.1175E-22
  51263.121    1.1007E-22
  51263.180    1.0879E-22
  51263.242    1.0653E-22
  51263.305    9.9839E-23
  51263.367    8.6849E-23
  51263.430    9.2438E-23
  51263.492    1.0964E-22
  51263.551    1.2638E-22
  51263.605    1.2787E-22
  51263.668    1.2142E-22
  51263.727    1.3119E-22
  51263.789    1.3648E-22
  51263.852    1.3313E-22
  51263.914    1.5839E-22
  51263.977    1.9866E-22
  51264.039    2.3616E-22
  51264.098    2.5791E-22
  51264.152    2.5172E-22
  51264.215    2.4502E-22
  51264.273    2.2793E-22
  51264.336    2.0541E-22
  51264.398    1.9855E-22
  51264.461    2.0957E-22
  51264.523    2.1832E-22
  51264.586    2.0137E-22
  51264.645    1.9785E-22
  51264.699    2.0891E-22
  51264.758    2.2857E-22
  51264.820    2.5202E-22
  51264.883    2.7252E-22
  51264.945    2.9448E-22
  51265.008    3.0344E-22
  51265.070    3.0158E-22
  51265.133    2.9883E-22
  51265.191    3.0777E-22
  51265.246    3.3514E-22
  51265.305    4.0735E-22
  51265.367    4.8371E-22
  51265.430    5.2023E-22
  51265.492    5.2720E-22
  51265.555    5.3590E-22
  51265.617    5.5521E-22
  51265.680    6.2422E-22
  51265.738    6.5075E-22
  51265.793    6.6054E-22
  51265.852    6.8895E-22
  51265.914    7.2378E-22
  51265.977    7.4890E-22
  51266.039    7.7124E-22
  51266.102    7.9861E-22
  51266.164    8.2720E-22
  51266.227    8.3109E-22
  51266.285    8.4462E-22
  51266.340    8.3667E-22
  51266.398    8.2214E-22
  51266.461    8.0444E-22
  51266.523    7.7153E-22
  51266.586    7.3836E-22
  51266.648    7.1412E-22
  51266.711    7.0537E-22
  51266.773    6.9727E-22
  51266.832    6.6993E-22
  51266.887    6.3512E-22
  51266.945    6.0014E-22
  51267.008    5.5339E-22
  51267.070    5.2085E-22
  51267.133    5.1215E-22
  51267.195    4.9197E-22
  51267.258    4.7114E-22
  51267.320    4.6087E-22
  51267.371    4.3334E-22
  51267.434    4.0804E-22
  51267.492    3.9397E-22
  51267.555    3.9159E-22
  51267.617    3.8782E-22
  51267.680    3.7648E-22
  51267.742    3.7120E-22
  51267.805    3.6604E-22
  51267.867    3.7830E-22
  51267.918    3.9850E-22
  51267.980    3.9936E-22
  51268.039    3.8873E-22
  51268.102    3.6547E-22
  51268.164    3.4959E-22
  51268.227    3.4134E-22
  51268.289    3.4023E-22
  51268.352    3.3765E-22
  51268.414    3.4178E-22
  51268.465    3.4786E-22
  51268.527    3.6258E-22
  51268.586    3.8258E-22
  51268.648    3.9496E-22
  51268.711    4.0304E-22
  51268.773    4.0376E-22
  51268.836    4.0862E-22
  51268.898    4.2548E-22
  51268.961    4.3132E-22
  51269.012    4.4294E-22
  51269.074    4.7565E-22
  51269.133    5.0296E-22
  51269.195    5.1550E-22
  51269.258    5.2666E-22
  51269.320    5.3597E-22
  51269.383    5.4594E-22
  51269.445    5.3805E-22
  51269.504    5.4384E-22
  51269.559    5.5341E-22
  51269.621    5.6284E-22
  51269.680    5.7937E-22
  51269.742    5.8762E-22
  51269.805    5.7852E-22
  51269.867    5.4694E-22
  51269.930    5.2480E-22
  51269.992    5.1293E-22
  51270.051    4.9292E-22
  51270.105    4.7488E-22
  51270.168    4.7018E-22
  51270.227    4.5828E-22
  51270.289    4.4018E-22
  51270.352    4.2214E-22
  51270.414    4.0908E-22
  51270.477    3.9694E-22
  51270.539    3.4394E-22
  51270.598    3.3799E-22
  51270.652    3.3547E-22
  51270.715    3.3923E-22
  51270.773    3.2047E-22
  51270.836    2.8710E-22
  51270.898    2.7822E-22
  51270.961    2.5650E-22
  51271.023    2.3690E-22
  51271.086    2.8819E-22
  51271.145    2.8434E-22
  51271.199    2.6881E-22
  51271.262    2.3317E-22
  51271.320    2.2515E-22
  51271.383    2.0939E-22
  51271.445    1.9772E-22
  51271.508    1.9666E-22
  51271.570    1.9508E-22
  51271.633    1.9958E-22
  51271.691    1.8224E-22
  51271.746    1.8610E-22
  51271.809    1.7856E-22
  51271.867    1.6395E-22
  51271.930    1.4762E-22
  51271.992    1.3162E-22
  51272.055    1.2221E-22
  51272.117    1.2827E-22
  51272.180    1.4235E-22
  51272.238    1.5712E-22
  51272.293    1.7306E-22
  51272.352    1.6647E-22
  51272.414    1.6496E-22
  51272.477    1.6401E-22
  51272.539    1.4550E-22
  51272.602    1.3465E-22
  51272.664    1.4171E-22
  51272.727    1.4544E-22
  51272.785    1.5787E-22
  51272.840    1.5539E-22
  51272.898    1.6408E-22
  51272.961    1.7155E-22
  51273.023    1.7900E-22
  51273.086    1.7403E-22
  51273.148    1.6781E-22
  51273.211    1.6533E-22
  51273.273    1.7403E-22
  51273.332    1.8397E-22
  51273.387    1.9019E-22
  51273.445    1.9516E-22
  51273.508    1.9765E-22
  51273.570    2.0760E-22
  51273.633    2.1753E-22
  51273.695    2.2748E-22
  51273.758    2.2127E-22
  51273.820    2.2376E-22
  51273.879    2.3121E-22
  51273.934    2.3270E-22
  51273.992    2.0912E-22
  51274.055    2.0238E-22
  51274.117    2.2639E-22
  51274.180    2.3967E-22
  51274.242    2.5378E-22
  51274.305    2.6704E-22
  51274.367    2.5521E-22
  51274.426    2.6202E-22
  51274.480    2.5563E-22
  51274.539    2.4118E-22
  51274.602    2.2165E-22
  51274.664    2.1178E-22
  51274.727    2.1120E-22
  51274.789    2.2231E-22
  51274.852    2.4092E-22
  51274.914    2.5470E-22
  51274.973    2.9108E-22
  51275.027    3.2178E-22
  51275.086    3.5077E-22
  51275.148    3.6455E-22
  51275.211    3.8260E-22
  51275.273    4.0358E-22
  51275.336    4.1323E-22
  51275.398    4.3195E-22
  51275.461    4.6633E-22
  51275.520    5.0454E-22
  51275.574    5.3286E-22
  51275.633    5.6606E-22
  51275.695    5.9501E-22
  51275.758    6.1108E-22
  51275.820    6.5446E-22
  51275.883    7.0085E-22
  51275.945    7.5494E-22
  51276.008    8.0203E-22
  51276.066    8.3663E-22
  51276.121    8.7020E-22
  51276.180    8.9617E-22
  51276.242    9.1608E-22
  51276.305    9.4592E-22
  51276.367    1.0168E-21
  51276.430    1.0426E-21
  51276.492    1.0548E-21
  51276.555    1.0654E-21
  51276.613    1.0578E-21
  51276.668    1.0529E-21
  51276.727    1.0368E-21
  51276.789    1.0176E-21
  51276.852    9.9473E-22
  51276.914    9.6918E-22
  51276.977    9.3391E-22
  51277.039    8.9853E-22
  51277.102    8.5754E-22
  51277.160    8.1866E-22
  51277.215    7.8738E-22
  51277.273    7.5204E-22
  51277.336    7.0063E-22
  51277.398    6.6232E-22
  51277.461    6.3886E-22
  51277.523    6.1356E-22
  51277.586    5.9646E-22
  51277.648    5.8345E-22
  51277.707    5.6269E-22
  51277.762    5.2982E-22
  51277.820    4.9644E-22
  51277.883    4.8506E-22
  51277.945    4.9572E-22
  51278.008    5.0900E-22
  51278.070    5.0291E-22
  51278.133    4.9303E-22
  51278.195    4.8072E-22
  51278.254    4.7046E-22
  51278.309    4.6995E-22
  51278.367    4.7800E-22
  51278.430    4.7690E-22
  51278.492    5.1373E-22
  51278.555    5.1934E-22
  51278.617    5.2351E-22
  51278.680    5.5402E-22
  51278.742    5.8415E-22
  51278.801    6.0567E-22
  51278.855    6.3413E-22
  51278.918    6.4842E-22
  51278.977    6.6799E-22
  51279.039    6.9255E-22
  51279.102    7.1048E-22
  51279.164    7.3033E-22
  51279.227    7.5812E-22
  51279.289    7.9559E-22
  51279.348    8.1241E-22
  51279.402    8.1499E-22
  51279.465    8.1582E-22
  51279.523    8.0348E-22
  51279.586    7.8582E-22
  51279.648    7.7696E-22
  51279.711    7.7173E-22
  51279.773    7.6618E-22
  51279.836    7.5259E-22
  51279.895    7.2859E-22
  51279.949    7.1339E-22
  51280.012    6.9650E-22
  51280.070    6.6788E-22
  51280.133    6.4265E-22
  51280.195    6.0800E-22
  51280.258    5.9907E-22
  51280.320    5.8345E-22
  51280.383    5.7563E-22
  51280.441    5.6287E-22
  51280.496    5.3517E-22
  51280.559    5.0706E-22
  51280.617    4.8145E-22
  51280.680    4.6875E-22
  51280.742    4.4573E-22
  51280.805    4.2092E-22
  51280.867    3.8760E-22
  51280.930    3.7843E-22
  51280.988    3.7374E-22
  51281.043    3.6684E-22
  51281.105    3.6873E-22
  51281.164    3.6720E-22
  51281.227    3.3825E-22
  51281.289    3.0808E-22
  51281.352    2.9234E-22
  51281.414    2.7836E-22
  51281.477    2.7528E-22
  51281.539    2.8152E-22
  51281.590    2.8347E-22
  51281.652    2.7722E-22
  51281.711    2.6686E-22
  51281.773    2.5536E-22
  51281.836    2.5430E-22
  51281.898    2.6870E-22
  51281.961    2.6051E-22
  51282.023    2.5634E-22
  51282.086    2.6866E-22
  51282.137    2.6814E-22
  51282.199    2.5257E-22
  51282.258    2.4275E-22
  51282.320    2.2874E-22
  51282.383    2.1834E-22
  51282.445    2.0946E-22
  51282.508    2.0998E-22
  51282.570    2.1137E-22
  51282.633    2.0718E-22
  51282.684    2.0899E-22
  51282.746    2.1693E-22
  51282.805    2.2487E-22
  51282.867    2.2218E-22
  51282.930    2.2561E-22
  51282.992    2.3920E-22
  51283.055    2.5421E-22
  51283.117    2.5434E-22
  51283.180    2.3942E-22
  51283.230    2.3680E-22
  51283.293    2.4770E-22
  51283.352    2.7326E-22
  51283.414    2.9838E-22
  51283.477    3.1303E-22
  51283.539    3.2114E-22
  51283.602    3.1466E-22
  51283.664    3.0728E-22
  51283.727    2.9377E-22
  51283.785    2.8162E-22
  51283.840    2.8970E-22
  51283.898    3.0913E-22
  51283.961    3.2568E-22
  51284.023    3.5166E-22
  51284.086    3.7344E-22
  51284.148    4.1758E-22
  51284.211    4.6227E-22
  51284.273    4.8704E-22
  51284.332    5.0656E-22
  51284.387    5.2502E-22
  51284.445    5.4913E-22
  51284.508    5.7674E-22
  51284.570    5.9177E-22
  51284.633    6.0967E-22
  51284.695    6.3335E-22
  51284.758    6.5996E-22
  51284.820    6.9946E-22
  51284.879    7.2066E-22
  51284.934    7.5719E-22
  51284.992    8.0025E-22
  51285.055    8.4664E-22
  51285.117    9.0470E-22
  51285.180    9.7122E-22
  51285.242    1.0182E-21
  51285.305    1.0885E-21
  51285.367    1.1506E-21
  51285.426    1.1898E-21
  51285.480    1.2061E-21
  51285.539    1.2162E-21
  51285.602    1.2152E-21
  51285.664    1.2206E-21
  51285.727    1.2208E-21
  51285.789    1.2062E-21
  51285.852    1.1859E-21
  51285.914    1.1718E-21
  51285.973    1.1368E-21
  51286.027    1.0928E-21
  51286.086    1.0482E-21
  51286.148    9.9903E-22
  51286.211    9.7244E-22
  51286.273    9.4349E-22
  51286.336    9.0680E-22
  51286.398    8.7920E-22
  51286.461    8.4562E-22
  51286.520    8.2147E-22
  51286.574    7.8871E-22
  51286.637    7.5320E-22
  51286.695    6.8380E-22
  51286.758    6.7928E-22
  51286.820    6.7157E-22
  51286.883    6.6553E-22
  51286.945    6.6514E-22
  51287.008    6.8343E-22
  51287.066    7.1097E-22
  51287.121    7.2774E-22
  51287.184    7.3828E-22
  51287.242    7.1966E-22
  51287.305    7.6382E-22
  51287.367    7.6811E-22
  51287.430    7.7837E-22
  51287.492    7.9226E-22
  51287.555    8.0844E-22
  51287.613    8.3790E-22
  51287.668    8.7672E-22
  51287.730    9.1660E-22
  51287.789    9.5027E-22
  51287.852    9.7744E-22
  51287.914    9.9832E-22
  51287.977    1.0174E-21
  51288.039    1.0339E-21
  51288.102    1.0509E-21
  51288.164    1.0589E-21
  51288.215    1.0450E-21
  51288.277    1.0196E-21
  51288.336    1.0048E-21
  51288.398    9.8116E-22
  51288.461    9.3570E-22
  51288.523    8.9753E-22
  51288.586    8.7481E-22
  51288.648    8.6398E-22
  51288.711    8.5339E-22
  51288.762    8.2043E-22
  51288.824    7.6910E-22
  51288.883    7.3068E-22
  51288.945    7.0090E-22
  51289.008    7.0978E-22
  51289.070    6.4655E-22
  51289.133    6.0828E-22
  51289.195    5.5013E-22
  51289.258    5.0063E-22
  51289.316    4.6418E-22
  51289.371    4.4014E-22
  51289.430    4.2717E-22
  51289.492    4.2648E-22
  51289.555    4.2070E-22
  51289.617    4.3268E-22
  51289.680    4.2968E-22
  51289.742    4.2049E-22
  51289.805    4.0926E-22
  51289.863    3.9690E-22
  51289.918    3.8506E-22
  51289.977    3.8234E-22
  51290.039    3.8619E-22
  51290.102    3.7061E-22
  51290.164    3.6469E-22
  51290.227    3.7175E-22
  51290.289    3.7139E-22
  51290.352    3.6604E-22
  51290.410    3.8193E-22
  51290.465    3.9199E-22
  51290.523    3.9281E-22
  51290.586    3.8895E-22
  51290.648    3.7541E-22
  51290.711    3.4322E-22
  51290.773    3.2100E-22
  51290.836    3.1445E-22
  51290.898    3.0802E-22
  51290.957    3.2000E-22
  51291.012    3.3480E-22
  51291.074    3.4424E-22
  51291.133    3.5428E-22
  51291.195    3.4811E-22
  51291.258    3.4988E-22
  51291.320    3.5552E-22
  51291.383    3.6784E-22
  51291.445    3.7883E-22
  51291.504    3.9364E-22
  51291.559    3.9720E-22
  51291.621    4.1512E-22
  51291.680    4.3973E-22
  51291.742    4.6004E-22
  51291.805    4.6877E-22
  51291.867    4.8611E-22
  51291.930    5.0265E-22
  51291.992    5.1443E-22
  51292.055    5.1779E-22
  51292.105    5.0440E-22
  51292.168    5.2160E-22
  51292.227    5.6620E-22
  51292.289    6.1160E-22
  51292.352    6.5487E-22
  51292.414    6.7794E-22
  51292.477    6.9408E-22
  51292.539    7.2258E-22
  51292.602    7.5452E-22
  51292.660    8.2398E-22
  51292.715    8.7879E-22
  51292.773    9.2889E-22
  51292.836    9.7905E-22
  51292.898    1.0175E-21
  51292.961    1.0417E-21
  51293.023    1.0815E-21
  51293.086    1.1193E-21
  51293.148    1.1571E-21
  51293.207    1.1918E-21
  51293.262    1.2310E-21
  51293.320    1.2624E-21
  51293.383    1.2867E-21
  51293.445    1.3074E-21
  51293.508    1.3140E-21
  51293.570    1.2996E-21
  51293.633    1.2691E-21
  51293.695    1.2407E-21
  51293.754    1.2483E-21
  51293.809    1.2400E-21
  51293.867    1.2092E-21
  51293.930    1.1707E-21
  51293.992    1.1251E-21
  51294.055    1.0751E-21
  51294.117    1.0522E-21
  51294.180    1.0221E-21
  51294.242    1.0068E-21
  51294.301    1.0013E-21
  51294.355    9.9247E-22
  51294.418    9.8845E-22
  51294.477    9.7839E-22
  51294.539    9.6793E-22
  51294.602    9.7948E-22
  51294.664    9.9501E-22
  51294.727    1.0113E-21
  51294.789    1.0283E-21
  51294.852    1.0252E-21
  51294.902    1.0466E-21
  51294.965    1.0723E-21
  51295.023    1.1003E-21
  51295.086    1.1352E-21
  51295.148    1.1766E-21
  51295.211    1.2262E-21
  51295.273    1.2697E-21
  51295.336    1.3133E-21
  51295.398    1.3396E-21
  51295.449    1.3518E-21
  51295.512    1.3430E-21
  51295.570    1.3258E-21
  51295.633    1.2973E-21
  51295.695    1.2779E-21
  51295.758    1.2542E-21
  51295.820    1.2362E-21
  51295.883    1.2102E-21
  51295.945    1.1714E-21
  51296.004    1.1352E-21
  51296.059    1.0950E-21
  51296.117    1.0474E-21
  51296.180    9.8272E-22
  51296.242    9.2576E-22
  51296.305    8.7830E-22
  51296.367    8.3906E-22
  51296.430    8.1297E-22
  51296.492    7.9848E-22
  51296.551    7.7979E-22
  51296.605    7.4382E-22
  51296.664    7.4088E-22
  51296.727    6.0200E-22
  51296.789    5.8011E-22
  51296.852    5.6886E-22
  51296.914    5.6542E-22
  51296.977    5.4840E-22
  51297.039    5.3603E-22
  51297.098    5.3288E-22
  51297.152    5.2935E-22
  51297.215    5.4043E-22
  51297.273    5.3406E-22
  51297.336    5.2281E-22
  51297.398    5.1730E-22
  51297.461    5.1679E-22
  51297.523    5.1126E-22
  51297.586    5.0320E-22
  51297.648    4.7820E-22
  51297.699    4.6831E-22
  51297.762    4.6329E-22
  51297.820    4.7301E-22
  51297.883    4.7852E-22
  51297.945    4.7672E-22
  51298.008    4.9477E-22
  51298.070    5.0830E-22
  51298.133    5.1041E-22
  51298.195    5.1115E-22
  51298.254    5.1414E-22
  51298.309    5.2566E-22
  51298.367    5.2431E-22
  51298.430    5.1403E-22
  51298.492    5.0342E-22
  51298.555    5.2680E-22
  51298.617    5.8209E-22
  51298.680    6.3068E-22
  51298.742    6.6649E-22
  51298.801    6.8645E-22
  51298.855    6.8434E-22
  51298.914    7.4716E-22
  51298.977    7.6888E-22
  51299.039    7.9097E-22
  51299.102    8.2676E-22
  51299.164    8.5843E-22
  51299.227    8.8100E-22
  51299.289    9.0179E-22
  51299.348    9.4827E-22
  51299.402    1.0041E-21
  51299.465    1.0348E-21
  51299.523    1.0840E-21
  51299.586    1.1445E-21
  51299.648    1.2055E-21
  51299.711    1.2520E-21
  51299.773    1.2875E-21
  51299.836    1.3059E-21
  51299.898    1.3204E-21
  51299.949    1.3355E-21
  51300.012    1.3330E-21
  51300.070    1.3159E-21
  51300.133    1.2987E-21
  51300.195    1.2845E-21
  51300.258    1.2794E-21
  51300.320    1.2702E-21
  51300.383    1.2528E-21
  51300.445    1.2298E-21
  51300.496    1.2183E-21
  51300.559    1.2064E-21
  51300.617    1.1811E-21
  51300.680    1.1672E-21
  51300.742    1.1786E-21
  51300.805    1.1917E-21
  51300.867    1.2168E-21
  51300.930    1.2375E-21
  51300.992    1.2533E-21
  51301.051    1.2713E-21
  51301.105    1.3082E-21
  51301.164    1.3593E-21
  51301.227    1.4095E-21
  51301.289    1.4613E-21
  51301.352    1.4924E-21
  51301.414    1.5183E-21
  51301.477    1.5595E-21
  51301.539    1.5910E-21
  51301.598    1.6127E-21
  51301.652    1.6232E-21
  51301.715    1.6188E-21
  51301.773    1.6016E-21
  51301.836    1.5778E-21
  51301.898    1.5332E-21
  51301.961    1.4693E-21
  51302.023    1.4159E-21
  51302.086    1.3737E-21
  51302.148    1.3385E-21
  51302.199    1.3059E-21
  51302.262    1.2617E-21
  51302.320    1.2159E-21
  51302.383    1.1708E-21
  51302.445    1.1272E-21
  51302.508    1.0710E-21
  51302.570    1.0196E-21
  51302.633    9.8732E-22
  51302.695    9.6092E-22
  51302.754    9.4360E-22
  51302.809    9.4123E-22
  51302.867    9.3042E-22
  51302.930    9.1938E-22
  51302.992    9.0131E-22
  51303.055    8.9162E-22
  51303.117    8.8740E-22
  51303.180    8.7579E-22
  51303.242    8.6367E-22
  51303.301    8.6922E-22
  51303.355    8.6862E-22
  51303.414    8.5053E-22
  51303.477    8.1550E-22
  51303.539    7.7499E-22
  51303.602    7.6645E-22
  51303.664    7.9901E-22
  51303.727    8.2729E-22
  51303.789    8.4201E-22
  51303.848    8.4894E-22
  51303.902    8.3222E-22
  51303.965    8.1262E-22
  51304.023    8.0583E-22
  51304.086    8.0729E-22
  51304.148    8.2090E-22
  51304.211    8.2511E-22
  51304.273    8.2331E-22
  51304.336    8.2820E-22
  51304.398    8.4332E-22
  51304.449    8.5785E-22
  51304.512    8.9177E-22
  51304.570    9.1983E-22
  51304.633    9.5309E-22
  51304.695    9.8771E-22
  51304.758    1.0478E-21
  51304.820    1.1004E-21
  51304.883    1.1458E-21
  51304.945    1.1823E-21
  51305.004    1.2113E-21
  51305.059    1.2250E-21
  51305.117    1.2302E-21
  51305.180    1.2443E-21
  51305.242    1.2563E-21
  51305.305    1.2636E-21
  51305.367    1.2638E-21
  51305.430    1.2563E-21
  51305.492    1.2497E-21
  51305.551    1.2512E-21
  51305.605    1.2764E-21
  51305.668    1.3130E-21
  51305.727    1.3510E-21
  51305.789    1.3850E-21
  51305.852    1.4176E-21
  51305.914    1.4542E-21
  51305.977    1.4984E-21
  51306.039    1.5555E-21
  51306.102    1.5965E-21
  51306.152    1.6445E-21
  51306.215    1.7004E-21
  51306.273    1.7507E-21
  51306.336    1.7832E-21
  51306.398    1.7763E-21
  51306.461    1.7638E-21
  51306.523    1.7678E-21
  51306.586    1.7565E-21
  51306.648    1.7480E-21
  51306.707    1.7344E-21
  51306.762    1.7152E-21
  51306.820    1.6820E-21
  51306.883    1.6359E-21
  51306.945    1.5992E-21
  51307.008    1.5534E-21
  51307.070    1.5007E-21
  51307.133    1.4584E-21
  51307.195    1.4258E-21
  51307.254    1.3847E-21
  51307.309    1.3249E-21
  51307.367    1.2454E-21
  51307.430    1.1729E-21
  51307.492    1.1206E-21
  51307.555    1.0765E-21
  51307.617    1.0398E-21
  51307.680    1.0084E-21
  51307.742    9.7338E-22
  51307.801    9.3450E-22
  51307.855    8.9736E-22
  51307.918    8.7781E-22
  51307.977    8.6271E-22
  51308.039    8.5894E-22
  51308.102    8.5292E-22
  51308.164    8.4764E-22
  51308.227    8.4720E-22
  51308.289    8.7257E-22
  51308.352    9.0403E-22
  51308.410    9.3457E-22
  51308.465    9.5932E-22
  51308.523    9.6187E-22
  51308.586    9.6330E-22
  51308.648    9.6543E-22
  51308.711    9.7144E-22
  51308.773    9.8450E-22
  51308.836    1.0119E-21
  51308.898    1.0561E-21
  51308.957    1.0974E-21
  51309.012    1.1310E-21
  51309.070    1.1570E-21
  51309.133    1.1871E-21
  51309.195    1.2113E-21
  51309.258    1.2507E-21
  51309.320    1.2998E-21
  51309.383    1.3297E-21
  51309.445    1.3580E-21
  51309.504    1.3864E-21
  51309.559    1.4143E-21
  51309.621    1.4579E-21
  51309.680    1.5123E-21
  51309.742    1.5722E-21
  51309.805    1.6225E-21
  51309.867    1.6602E-21
  51309.930    1.6891E-21
  51309.992    1.7179E-21
  51310.055    1.7398E-21
  51310.113    1.7731E-21
  51310.168    1.7986E-21
  51310.227    1.8102E-21
  51310.289    1.7898E-21
  51310.352    1.7643E-21
  51310.414    1.7314E-21
  51310.477    1.6844E-21
  51310.539    1.6524E-21
  51310.602    1.6237E-21
  51310.660    1.5969E-21
  51310.715    1.5752E-21
  51310.777    1.5443E-21
  51310.836    1.5079E-21
  51310.898    1.4878E-21
  51310.961    1.4841E-21
  51311.023    1.4733E-21
  51311.086    1.4631E-21
  51311.148    1.4581E-21
  51311.211    1.4634E-21
  51311.262    1.4674E-21
  51311.324    1.4715E-21
  51311.383    1.4782E-21
  51311.445    1.4815E-21
  51311.508    1.4886E-21
  51311.570    1.5114E-21
  51311.633    1.5370E-21
  51311.695    1.5590E-21
  51311.758    1.5914E-21
  51311.816    1.6237E-21
  51311.871    1.6548E-21
  51311.930    1.6909E-21
  51311.992    1.7279E-21
  51312.055    1.7689E-21
  51312.117    1.8182E-21
  51312.180    1.8620E-21
  51312.242    1.8840E-21
  51312.305    1.8993E-21
  51312.363    1.9050E-21
  51312.418    1.9134E-21
  51312.480    1.9172E-21
  51312.539    1.9133E-21
  51312.602    1.9090E-21
  51312.664    1.9050E-21
  51312.727    1.8925E-21
  51312.789    1.8740E-21
  51312.852    1.8406E-21
  51312.914    1.8464E-21
  51312.965    1.8537E-21
  51313.027    1.8520E-21
  51313.086    1.8409E-21
  51313.148    1.8215E-21
  51313.211    1.7984E-21
  51313.273    1.7781E-21
  51313.336    1.7435E-21
  51313.398    1.6858E-21
  51313.461    1.6179E-21
  51313.520    1.5531E-21
  51313.574    1.4768E-21
  51313.633    1.3957E-21
  51313.695    1.3196E-21
  51313.758    1.2522E-21
  51313.820    1.1876E-21
  51313.883    1.1083E-21
  51313.945    1.0349E-21
  51314.008    9.9391E-22
  51314.066    9.5776E-22
  51314.121    9.2059E-22
  51314.184    8.8510E-22
  51314.242    8.4989E-22
  51314.305    8.2149E-22
  51314.367    7.9690E-22
  51314.430    7.7218E-22
  51314.492    7.4538E-22
  51314.555    7.0936E-22
  51314.617    6.6697E-22
  51314.676    6.6607E-22
  51314.730    6.4347E-22
  51314.789    5.3435E-22
  51314.852    5.0560E-22
  51314.914    4.8938E-22
  51314.977    4.9378E-22
  51315.039    5.0576E-22
  51315.102    4.9490E-22
  51315.164    4.6963E-22
  51315.223    4.5156E-22
  51315.277    4.4648E-22
  51315.340    4.3121E-22
  51315.398    4.2941E-22
  51315.461    4.3468E-22
  51315.523    4.2248E-22
  51315.586    3.9991E-22
  51315.648    3.6283E-22
  51315.711    3.3255E-22
  51315.773    3.0413E-22
  51315.824    2.7198E-22
  51315.887    2.4993E-22
  51315.945    2.3431E-22
  51316.008    2.1851E-22
  51316.070    2.0996E-22
  51316.133    2.0681E-22
  51316.195    1.9765E-22
  51316.258    2.1221E-22
  51316.320    2.2842E-22
  51316.379    2.4000E-22
  51316.434    2.2334E-22
  51316.492    1.8656E-22
  51316.555    1.8163E-22
  51316.617    1.8823E-22
  51316.680    1.9353E-22
  51316.742    2.0066E-22
  51316.805    2.0014E-22
  51316.867    2.1060E-22
  51316.926    2.1188E-22
  51316.980    2.1105E-22
  51317.043    1.9723E-22
  51317.102    1.7783E-22
  51317.164    1.6254E-22
  51317.227    1.7174E-22
  51317.289    1.9715E-22
  51317.352    2.1928E-22
  51317.414    2.2347E-22
  51317.477    2.0886E-22
  51317.535    1.9475E-22
  51317.590    1.7811E-22
  51317.648    1.6884E-22
  51317.711    1.7653E-22
  51317.773    1.7599E-22
  51317.836    1.5364E-22
  51317.898    1.3073E-22
  51317.961    1.2270E-22
  51318.023    1.2722E-22
  51318.082    1.3123E-22
  51318.137    1.2442E-22
  51318.199    1.0934E-22
  51318.258    9.4872E-23
  51318.320    9.3802E-23
  51318.383    1.0809E-22
  51318.445    1.3507E-22
  51318.508    1.3231E-22
  51318.570    1.1648E-22
  51318.633    1.0653E-22
  51318.691    9.1736E-23
  51318.746    7.9637E-23
  51318.805    7.8094E-23
  51318.867    7.7163E-23
  51318.930    6.5993E-23
  51318.992    6.1160E-23
  51319.055    6.2648E-23
  51319.117    6.8670E-23
  51319.180    6.2286E-23
  51319.238    6.0618E-23
  51319.293    6.0576E-23
  51319.355    6.8215E-23
  51319.414    7.6431E-23
  51319.477    8.6796E-23
  51319.539    9.0833E-23
  51319.602    1.0056E-22
  51319.664    1.0834E-22
  51319.727    1.1199E-22
  51319.789    1.1722E-22
  51319.840    1.1055E-22
  51319.902    9.5776E-23
  51319.961    8.2675E-23
  51320.023    8.3958E-23
  51320.086    8.2174E-23
  51320.148    8.3756E-23
  51320.211    9.9804E-23
  51320.273    1.0144E-22
  51320.336    6.1171E-23
  51320.395    3.2426E-23
  51320.449    3.5993E-23
  51320.508    6.1864E-23
  51320.570    8.8725E-23
  51320.633    1.2824E-22
  51320.695    1.4160E-22
  51320.758    1.3774E-22
  51320.820    1.3485E-22
  51320.883    1.2817E-22
  51320.945    1.2071E-22
  51320.996    1.1746E-22
  51321.059    9.8319E-23
  51321.117    7.4072E-23
  51321.180    5.5134E-23
  51321.242    5.3607E-23
  51321.305    5.6859E-23
  51321.367    8.0675E-23
  51321.430    1.0045E-22
  51321.492    1.1945E-22
  51321.551    1.2663E-22
  51321.605    1.2087E-22
  51321.664    9.5330E-23
  51321.727    7.8338E-23
  51321.789    7.0890E-23
  51321.852    8.0226E-23
  51321.914    9.3989E-23
  51321.977    9.8209E-23
  51322.039    1.0148E-22
  51322.102    9.7301E-23
  51322.152    8.5565E-23
  51322.215    6.6112E-23
  51322.273    5.1420E-23
  51322.336    3.8266E-23
  51322.398    3.9908E-23
  51322.461    4.5143E-23
  51322.523    6.5310E-23
  51322.586    8.3631E-23
  51322.648    1.0598E-22
  51322.707    1.1204E-22
  51322.762    1.0656E-22
  51322.820    8.5345E-23
  51322.883    5.6749E-23
  51322.945    6.5916E-23
  51323.008    9.0569E-23
  51323.070    8.5538E-23
  51323.133    8.0923E-23
  51323.195    7.6308E-23
  51323.254    6.8923E-23
  51323.309    7.0769E-23
  51323.371    8.0923E-23
  51323.430    8.5538E-23
  51323.492    9.1077E-23
  51323.555    8.9231E-23
  51323.617    8.5538E-23
  51323.680    7.9077E-23
  51323.742    7.3538E-23
  51323.805    6.8923E-23
  51323.863    5.9692E-23
  51323.918    6.3385E-23
  51323.977    6.7077E-23
  51324.039    7.1692E-23
  51324.102    6.8923E-23
  51324.164    6.6154E-23
  51324.227    7.1692E-23
  51324.289    7.0769E-23
  51324.352    6.6154E-23
  51324.410    5.9708E-23
  51324.465    5.6923E-23
  51324.527    6.1538E-23
  51324.586    6.4308E-23
  51324.648    6.3385E-23
  51324.711    5.6923E-23
  51324.773    5.1385E-23
  51324.836    4.4923E-23
  51324.898    4.8615E-23
  51324.961    5.4154E-23
  51325.020    5.1385E-23
  51325.074    4.4000E-23
  51325.133    4.4923E-23
  51325.195    4.9538E-23
  51325.258    4.6769E-23
  51325.320    4.2154E-23
  51325.383    3.9385E-23
  51325.445    3.7538E-23
  51325.508    4.4000E-23
  51325.566    5.2308E-23
  51325.621    5.8769E-23
  51325.684    6.3385E-23
  51325.742    5.8769E-23
  51325.805    5.4154E-23
  51325.867    4.4000E-23
  51325.930    3.6615E-23
  51325.992    4.2154E-23
  51326.055    4.9538E-23
  51326.117    5.4154E-23
  51326.176    5.9844E-23
  51326.230    4.9820E-23
  51326.289    4.0872E-23
  51326.352    2.3119E-23
  51326.414    1.9633E-23
  51326.477    4.3422E-23
  51326.539    4.4521E-23
  51326.602    2.6145E-23
  51326.664    1.8281E-23
  51326.727    2.6389E-23
  51326.777    4.6732E-23
  51326.840    4.4000E-23
  51326.898    4.1231E-23
  51326.961    3.9385E-23
  51327.023    4.4000E-23
  51327.086    4.8615E-23
  51327.148    4.1231E-23
  51327.211    3.6615E-23
  51327.273    3.4769E-23
  51327.332    3.9385E-23
  51327.387    4.2154E-23
  51327.445    4.9538E-23
  51327.508    5.1385E-23
  51327.570    4.9538E-23
  51327.633    4.4000E-23
  51327.695    4.1231E-23
  51327.758    3.7538E-23
  51327.820    3.6615E-23
  51327.883    3.9385E-23
  51327.934    4.4000E-23
  51327.996    4.4923E-23
  51328.055    4.1231E-23
  51328.117    3.7538E-23
  51328.180    3.9385E-23
  51328.242    4.2154E-23
  51328.305    4.2154E-23
  51328.367    3.7538E-23
  51328.430    3.4769E-23
  51328.488    3.4769E-23
  51328.543    3.2000E-23
  51328.605    3.6615E-23
  51328.664    3.9385E-23
  51328.727    4.1231E-23
  51328.789    3.9385E-23
  51328.852    3.4769E-23
  51328.914    3.2923E-23
  51328.977    3.6615E-23
  51329.039    4.1231E-23
  51329.090    4.4923E-23
  51329.152    4.4000E-23
  51329.211    3.9385E-23
  51329.273    3.6615E-23
  51329.336    3.4769E-23
  51329.398    3.9385E-23
  51329.461    3.6615E-23
  51329.523    3.0154E-23
  51329.586    2.5538E-23
  51329.645    2.2769E-23
  51329.699    2.4615E-23
  51329.762    3.0154E-23
  51329.820    3.6615E-23
  51329.883    3.9385E-23
  51329.945    3.7538E-23
  51330.008    3.2000E-23
  51330.070    2.7385E-23
  51330.133    2.5538E-23
  51330.195    3.0154E-23
  51330.254    3.4769E-23
  51330.309    3.6615E-23
  51330.367    3.0154E-23
  51330.430    2.5538E-23
  51330.492    2.0000E-23
  51330.555    1.8154E-23
  51330.617    2.2769E-23
  51330.680    2.5538E-23
  51330.742    3.0154E-23
  51330.801    2.9231E-23
  51330.855    2.7385E-23
  51330.918    2.2769E-23
  51330.977    2.4615E-23
  51331.039    2.9231E-23
  51331.102    2.7385E-23
  51331.164    2.1846E-23
  51331.227    1.7231E-23
  51331.289    1.8154E-23
  51331.352    2.7385E-23
  51331.410    3.0154E-23
  51331.465    3.4769E-23
  51331.523    3.2000E-23
  51331.586    2.7385E-23
  51331.648    2.4615E-23
  51331.711    2.7385E-23
  51331.773    3.2923E-23
  51331.836    3.2000E-23
  51331.898    2.5853E-23
  51331.961    2.9231E-23
  51332.012    3.2000E-23
  51332.074    2.7385E-23
  51332.133    1.8154E-23
  51332.195    2.2769E-23
  51332.258    2.1846E-23
  51332.320    2.4738E-23
  51332.383    2.5538E-23
  51332.445    2.2769E-23
  51332.508    1.7231E-23
  51332.566    1.5385E-23
  51332.621    2.0000E-23
  51332.684    2.4615E-23
  51332.742    2.7385E-23
  51332.805    3.2923E-23
  51332.867    3.0154E-23
  51332.930    2.9231E-23
  51332.992    3.0154E-23
  51333.055    3.4769E-23
  51333.117    3.6615E-23
  51333.176    4.1231E-23
  51333.230    4.4923E-23
  51333.289    4.6769E-23
  51333.352    4.2154E-23
  51333.414    3.9385E-23
  51333.477    4.2154E-23
  51333.539    4.6769E-23
  51333.602    4.1231E-23
  51333.664    3.9385E-23
  51333.723    3.0971E-23
  51333.777    2.7385E-23
  51333.840    3.2923E-23
  51333.898    2.1633E-23
  51333.961    4.2382E-23
  51334.023    4.0268E-23
  51334.086    2.6301E-23
  51334.148    3.1462E-23
  51334.211    3.7538E-23
  51334.273    3.2923E-23
  51334.332    2.9231E-23
  51334.387    3.4769E-23
  51334.445    3.9385E-23
  51334.508    3.6615E-23
  51334.570    4.2897E-23
  51334.633    4.6769E-23
  51334.695    3.7538E-23
  51334.758    3.2923E-23
  51334.820    2.7385E-23
  51334.883    3.0154E-23
  51334.934    3.4769E-23
  51334.996    4.1231E-23
  51335.055    3.9385E-23
  51335.117    3.4769E-23
  51335.180    3.0154E-23
  51335.242    3.4769E-23
  51335.305    3.9385E-23
  51335.367    4.6769E-23
  51335.430    3.6615E-23
  51335.488    3.2000E-23
  51335.543    3.2923E-23
  51335.605    3.7538E-23
  51335.664    4.4000E-23
  51335.727    4.9538E-23
  51335.789    3.7538E-23
  51335.852    3.0154E-23
  51335.914    3.2923E-23
  51335.977    4.2154E-23
  51336.039    4.8615E-23
  51336.098    4.9538E-23
  51336.152    4.4000E-23
  51336.211    4.1231E-23
  51336.273    4.6769E-23
  51336.336    5.6000E-23
  51336.398    5.1385E-23
  51336.461    4.6769E-23
  51336.523    3.7538E-23
  51336.586    3.0154E-23
  51336.645    2.9231E-23
  51336.699    3.6615E-23
  51336.762    4.4923E-23
  51336.820    5.1385E-23
  51336.883    5.2308E-23
  51336.945    4.6769E-23
  51337.008    3.6615E-23
  51337.070    2.5538E-23
  51337.133    2.4615E-23
  51337.195    2.4615E-23
  51337.254    3.0154E-23
  51337.309    3.6615E-23
  51337.367    4.1231E-23
  51337.430    3.9385E-23
  51337.492    3.2923E-23
  51337.555    2.9231E-23
  51337.617    2.0317E-23
  51337.680    1.5385E-23
  51337.742    1.0769E-23
  51337.805    8.0000E-24
  51337.863    1.2615E-23
  51337.918    1.7231E-23
  51337.977    1.8154E-23
  51338.039    1.9712E-23
  51338.102    2.5538E-23
  51338.164    3.2000E-23
  51338.227    3.0154E-23
  51338.289    2.5538E-23
  51338.352    2.1846E-23
  51338.410    1.5385E-23
  51338.465    9.8462E-24
  51338.527    7.0769E-24
  51338.586    5.2308E-24
  51338.648    9.8462E-24
  51338.711    2.0000E-23
  51338.773    2.4615E-23
  51338.836    2.5538E-23
  51338.898    2.1846E-23
  51338.961    1.5385E-23
  51339.020    1.2615E-23
  51339.074    1.0769E-23
  51339.133    1.5385E-23
  51339.195    1.2615E-23
  51339.258    1.8154E-23
  51339.320    2.5538E-23
  51339.383    2.9231E-23
  51339.445    2.7385E-23
  51339.508    2.1846E-23
  51339.570    1.7231E-23
  51339.629    1.0769E-23
  51339.684    8.0000E-24
  51339.742    9.8462E-24
  51339.805    1.4462E-23
  51339.867    1.8154E-23
  51339.930    1.4462E-23
  51339.992   -1.6890E-23
  51340.055    2.7385E-23
  51340.117    2.2769E-23
  51340.176    2.3587E-23
  51340.230    1.8154E-23
  51340.293    2.4615E-23
  51340.352    3.0154E-23
  51340.414    3.2923E-23
  51340.477    3.2000E-23
  51340.539    2.5538E-23
  51340.602    2.1846E-23
  51340.664    2.2769E-23
  51340.727    3.0154E-23
  51340.785    3.7538E-23
  51340.840    4.2154E-23
  51340.898    4.1231E-23
  51340.961    3.0154E-23
  51341.023    2.5538E-23
  51341.086    2.0000E-23
  51341.148    1.2615E-23
  51341.211    1.0769E-23
  51341.273    1.4462E-23
  51341.336    1.8154E-23
  51341.395    2.2769E-23
  51341.449    2.4615E-23
  51341.508    2.1846E-23
  51341.570    1.7231E-23
  51341.633    1.0769E-23
  51341.695    3.3846E-24
  51341.758   -3.0769E-25
  51341.820    6.1539E-25
  51341.883    7.0769E-24
  51341.941    1.2615E-23
  51341.996    2.0000E-23
  51342.059    1.5385E-23
  51342.117    1.0769E-23
  51342.180    1.4462E-23
  51342.242    1.8154E-23
  51342.305    2.3903E-23
  51342.367    1.8098E-23
  51342.430    4.5615E-23
  51342.492    4.3053E-23
  51342.551    3.9024E-23
  51342.605    3.5363E-23
  51342.668    2.9910E-23
  51342.727    2.8640E-23
  51342.789    3.7018E-23
  51342.852    3.9747E-23
  51342.914    3.4769E-23
  51342.977    3.0154E-23
  51343.039    2.5538E-23
  51343.102    3.2000E-23
  51343.160    3.7538E-23
  51343.215    3.2222E-23
  51343.273    2.4615E-23
  51343.336    2.0000E-23
  51343.398    2.1846E-23
  51343.461    2.7385E-23
  51343.523    2.5538E-23
  51343.586    1.8154E-23
  51343.648    2.1846E-23
  51343.711    2.7578E-23
  51343.762    4.2804E-23
  51343.824    4.5545E-23
  51343.883    3.9286E-23
  51343.945    2.6892E-23
  51344.008    1.9145E-23
  51344.070    1.5800E-23
  51344.133    1.4304E-23
  51344.195    1.1702E-23
  51344.258    1.1935E-23
  51344.316    8.0308E-24
  51344.371    9.1861E-25
  51344.434   -3.4075E-24
  51344.492    3.6905E-24
  51344.555    1.2127E-23
  51344.617    1.3049E-23
  51344.680    5.7991E-24
  51344.742    3.3846E-24
  51344.805    7.0769E-24
  51344.867    1.0769E-23
  51344.926    1.2615E-23
  51344.980    8.0000E-24
  51345.039    6.1539E-25
  51345.102   -6.6163E-25
  51345.164    1.1740E-23
  51345.227    1.2149E-23
  51345.289    1.7641E-23
  51345.352    3.6442E-23
  51345.414    4.0820E-23
  51345.477    4.1365E-23
  51345.535    4.3853E-23
  51345.590    2.0400E-23
  51345.648    9.8462E-24
  51345.711    5.2308E-24
  51345.773    6.1539E-25
  51345.836    2.4615E-24
  51345.898    8.0000E-24
  51345.961    7.0769E-24
  51346.023    4.5912E-24
  51346.082    6.3842E-24
  51346.137   -7.2367E-24
  51346.199   -5.2908E-24
  51346.258   -6.1108E-24
  51346.320    6.1539E-25
  51346.383    5.2308E-24
  51346.445    8.0000E-24
  51346.508    5.2308E-24
  51346.570    6.1539E-25
  51346.633   -6.7692E-24
  51346.691   -4.0000E-24
  51346.746    3.3846E-24
  51346.809    8.0000E-24
  51346.867    1.2615E-23
  51346.930    1.0769E-23
  51346.992    5.2308E-24
  51347.055   -3.0769E-25
  51347.117   -9.5385E-24
  51347.180   -1.1385E-23
  51347.242   -6.7692E-24
  51347.301   -1.9112E-24
  51347.355    7.0769E-24
  51347.414    5.2308E-24
  51347.477    7.7007E-25
  51347.539    2.4615E-24
  51347.602    7.0769E-24
  51347.664    1.2615E-23
  51347.727    1.5385E-23
  51347.789    1.2615E-23
  51347.852    8.0000E-24
  51347.910    3.3846E-24
  51347.965    5.2308E-24
  51348.023    1.0769E-23
  51348.086    1.8154E-23
  51348.148    1.5385E-23
  51348.211    8.0000E-24
  51348.273    6.1539E-25
  51348.336   -2.1538E-24
  51348.398   -2.1538E-24
  51348.457   -9.5385E-24
  51348.512   -1.4154E-23
  51348.574   -1.2308E-23
  51348.633   -7.6923E-24
  51348.695   -3.0769E-25
  51348.758    7.0769E-24
  51348.820    1.2615E-23
  51348.883    1.0769E-23
  51348.945    5.2308E-24
  51349.008    3.3846E-24
  51349.066    9.8462E-24
  51349.121    1.7231E-23
  51349.184    2.1846E-23
  51349.242    2.0000E-23
  51349.305    1.5385E-23
  51349.367    9.8462E-24
  51349.430   -3.0769E-25
  51349.492   -4.9231E-24
  51349.555   -3.0769E-25
  51349.617    7.0769E-24
  51349.676    6.1539E-25
  51349.730   -4.0000E-24
  51349.789   -4.9231E-24
  51349.852    3.3846E-24
  51349.914    1.0769E-23
  51349.977    1.7231E-23
