 16O18O;(4,0);79K;51750-950 cm-1;3216 pts
     WNO          SIG
  51750.043   -1.8619E-23
  51750.105   -2.1446E-23
  51750.168   -3.1069E-23
  51750.230   -4.8368E-23
  51750.293   -5.2117E-23
  51750.348   -4.6444E-23
  51750.410   -3.0819E-23
  51750.473   -1.8327E-23
  51750.535   -1.3833E-23
  51750.598   -4.0467E-24
  51750.660    1.4058E-23
  51750.723    1.8320E-23
  51750.785    1.0327E-23
  51750.848    9.4964E-25
  51750.910   -3.1419E-23
  51750.973   -4.0646E-23
  51751.035   -1.9311E-23
  51751.098   -5.8627E-24
  51751.156    8.6376E-24
  51751.219    3.5087E-23
  51751.281    4.7344E-23
  51751.344    5.9960E-23
  51751.406    7.5045E-23
  51751.469    8.3302E-23
  51751.531    7.2132E-23
  51751.594    6.8587E-23
  51751.652    8.3648E-23
  51751.715    9.9136E-23
  51751.777    9.7009E-23
  51751.840    7.9193E-23
  51751.902    6.3623E-23
  51751.965    5.2468E-23
  51752.027    4.1096E-23
  51752.090    2.8353E-23
  51752.152    2.4382E-23
  51752.215    2.2992E-23
  51752.277    2.7645E-23
  51752.340    5.0260E-23
  51752.402    7.0015E-23
  51752.465    7.1992E-23
  51752.520    6.2430E-23
  51752.582    4.7439E-23
  51752.645    3.2196E-23
  51752.707    1.8416E-23
  51752.770    2.0281E-23
  51752.832    2.9925E-23
  51752.895    4.7461E-23
  51752.957    5.7729E-23
  51753.020    6.8456E-23
  51753.082    6.0304E-23
  51753.145    4.4883E-23
  51753.207    3.7855E-23
  51753.270    4.1501E-23
  51753.328    5.7626E-23
  51753.391    7.6102E-23
  51753.453    7.4830E-23
  51753.516    5.4058E-23
  51753.578    3.6554E-23
  51753.641    1.7126E-23
  51753.703    2.7163E-24
  51753.766   -4.7640E-24
  51753.824   -1.1174E-23
  51753.887   -3.5806E-24
  51753.949    2.4714E-23
  51754.012    5.0303E-23
  51754.074    7.0670E-23
  51754.137    8.7408E-23
  51754.199    9.2144E-23
  51754.262    7.2269E-23
  51754.324    4.4643E-23
  51754.387    3.0688E-23
  51754.449    1.8026E-23
  51754.512    8.5669E-24
  51754.574    6.0746E-24
  51754.637    1.1969E-23
  51754.691    6.2342E-24
  51754.754   -7.5977E-24
  51754.816   -1.9970E-23
  51754.879   -2.0245E-23
  51754.941   -8.2154E-24
  51755.004    2.5298E-24
  51755.066    5.0219E-24
  51755.129   -1.4092E-23
  51755.191   -2.9377E-23
  51755.254   -2.8854E-23
  51755.316    6.1443E-24
  51755.379    4.8621E-23
  51755.441    7.8557E-23
  51755.500    8.0366E-23
  51755.563    6.3118E-23
  51755.625    6.5171E-23
  51755.688    8.4265E-23
  51755.750    1.0504E-22
  51755.813    1.0858E-22
  51755.875    9.9537E-23
  51755.938    8.6617E-23
  51756.000    7.9332E-23
  51756.059    6.8363E-23
  51756.121    5.1161E-23
  51756.184    3.9898E-23
  51756.246    3.1667E-23
  51756.309   -3.0594E-24
  51756.371   -1.6659E-23
  51756.434    1.3339E-23
  51756.496    5.2244E-23
  51756.559    7.2116E-23
  51756.621    7.7742E-23
  51756.684    6.2654E-23
  51756.746    4.4720E-23
  51756.809    1.8079E-23
  51756.863    7.8162E-24
  51756.926   -3.8348E-24
  51756.988   -1.2270E-23
  51757.051   -1.2126E-23
  51757.113   -1.4242E-23
  51757.176    5.1107E-24
  51757.238    2.8178E-23
  51757.301    3.9237E-23
  51757.363    5.2193E-23
  51757.426    4.2366E-23
  51757.488    3.0364E-23
  51757.551    3.3653E-23
  51757.613    3.8057E-23
  51757.672    4.6872E-23
  51757.734    6.8028E-23
  51757.797    7.0754E-23
  51757.859    6.3707E-23
  51757.922    5.2222E-23
  51757.984    2.4192E-23
  51758.047   -4.5833E-24
  51758.109   -4.1594E-24
  51758.172    1.4652E-23
  51758.230    4.7855E-23
  51758.293    7.0440E-23
  51758.355    7.1811E-23
  51758.418    7.2549E-23
  51758.480    6.1974E-23
  51758.543    4.7377E-23
  51758.605    4.4827E-23
  51758.668    4.7830E-23
  51758.730    2.3981E-23
  51758.793    1.9421E-23
  51758.855    3.4384E-23
  51758.918    4.1375E-23
  51758.980    4.2507E-23
  51759.035    3.3862E-23
  51759.098    5.2339E-23
  51759.160    6.4076E-23
  51759.223    6.5422E-23
  51759.285    6.4150E-23
  51759.348    5.7989E-23
  51759.410    6.4586E-23
  51759.473    7.5812E-23
  51759.535    6.5301E-23
  51759.598    4.5857E-23
  51759.660    1.8562E-23
  51759.723   -5.1178E-24
  51759.785   -1.5728E-23
  51759.848   -1.6647E-23
  51759.906    8.4089E-24
  51759.969    4.6148E-23
  51760.031    4.7116E-23
  51760.094    3.4225E-23
  51760.156    1.6279E-23
  51760.219    1.1785E-23
  51760.281    1.1524E-23
  51760.344    7.3243E-24
  51760.406    8.2561E-24
  51760.465   -3.6328E-24
  51760.527   -5.4202E-25
  51760.590    3.2803E-24
  51760.652    1.3231E-23
  51760.715    2.7750E-23
  51760.777    4.0618E-23
  51760.840    3.8556E-23
  51760.902    3.8115E-23
  51760.965    4.4574E-23
  51761.027    4.7020E-23
  51761.090    5.6222E-23
  51761.152    5.0007E-23
  51761.215    4.6818E-23
  51761.270    4.9845E-23
  51761.332    6.0613E-23
  51761.395    5.8558E-23
  51761.457    2.6819E-23
  51761.520    6.0020E-24
  51761.582    1.5600E-23
  51761.645    2.5249E-23
  51761.707    3.1067E-23
  51761.770    5.4246E-23
  51761.832    6.9268E-23
  51761.895    5.5230E-23
  51761.957    3.0106E-23
  51762.020    2.6812E-23
  51762.082    2.5978E-23
  51762.141    1.1442E-23
  51762.203   -1.7270E-23
  51762.266   -2.9818E-23
  51762.328   -1.2373E-23
  51762.391    9.4299E-24
  51762.453    1.1639E-23
  51762.516   -2.7399E-25
  51762.578   -9.0317E-24
  51762.641   -2.8756E-23
  51762.699   -4.2852E-23
  51762.762   -5.2204E-23
  51762.824   -6.0842E-23
  51762.887   -4.9183E-23
  51762.949   -3.4538E-23
  51763.012   -2.6830E-23
  51763.074   -2.8734E-23
  51763.137   -4.5369E-23
  51763.199   -6.7261E-23
  51763.262   -7.8280E-23
  51763.324   -8.0196E-23
  51763.387   -7.3972E-23
  51763.449   -4.4550E-23
  51763.504   -1.4695E-23
  51763.566   -4.5217E-24
  51763.629    2.7009E-24
  51763.691    4.1996E-24
  51763.754    4.1367E-25
  51763.816   -1.3282E-23
  51763.879   -1.8065E-23
  51763.941   -1.5542E-23
  51764.004   -1.1648E-23
  51764.066   -5.7805E-24
  51764.129   -3.7484E-24
  51764.191    1.7065E-24
  51764.254    1.7652E-23
  51764.316    1.7031E-23
  51764.375    9.3716E-24
  51764.438    1.7129E-23
  51764.500    6.3528E-24
  51764.563   -1.3123E-23
  51764.625   -1.5589E-23
  51764.688   -2.7715E-23
  51764.750   -3.1847E-23
  51764.813   -1.0404E-23
  51764.875    1.0950E-23
  51764.934    1.3077E-23
  51764.996    6.9666E-24
  51765.059   -4.6968E-24
  51765.121   -1.9155E-23
  51765.184   -2.8366E-23
  51765.246   -4.2357E-23
  51765.309   -4.4968E-23
  51765.371   -4.1721E-23
  51765.434   -2.8343E-23
  51765.496   -1.2579E-23
  51765.559   -3.5674E-24
  51765.621   -1.3646E-23
  51765.684   -2.8169E-23
  51765.738   -4.6146E-23
  51765.801   -4.8157E-23
  51765.863   -4.8455E-23
  51765.926   -4.6831E-23
  51765.988   -4.8789E-23
  51766.051   -7.0410E-23
  51766.113   -8.8885E-23
  51766.176   -1.0793E-22
  51766.238   -9.7732E-23
  51766.301   -9.1502E-23
  51766.363   -7.2680E-23
  51766.426   -3.7625E-23
  51766.488   -7.2830E-24
  51766.551   -4.4473E-24
  51766.609   -2.1341E-23
  51766.672   -2.9676E-23
  51766.734   -2.1070E-23
  51766.797   -9.0164E-24
  51766.859   -4.0448E-24
  51766.922   -7.9675E-24
  51766.984   -1.8635E-23
  51767.047   -3.4928E-23
  51767.109   -5.2567E-23
  51767.168   -7.2306E-23
  51767.230   -8.0819E-23
  51767.293   -7.9052E-23
  51767.355   -7.3686E-23
  51767.418   -6.8101E-23
  51767.480   -5.5738E-23
  51767.543   -5.3861E-23
  51767.605   -5.7322E-23
  51767.668   -6.3763E-23
  51767.730   -5.4276E-23
  51767.793   -4.5960E-23
  51767.855   -4.9004E-23
  51767.918   -4.5898E-23
  51767.980   -3.4899E-23
  51768.035   -2.7143E-23
  51768.098   -1.7713E-23
  51768.160    1.2218E-23
  51768.223    3.9941E-23
  51768.285    4.8486E-23
  51768.348    5.4256E-23
  51768.410    4.5129E-23
  51768.473    3.3253E-23
  51768.535    1.6446E-23
  51768.598    7.4078E-24
  51768.660   -2.0695E-24
  51768.723   -1.9076E-23
  51768.785   -2.6288E-23
  51768.844   -3.2151E-23
  51768.906   -3.7320E-23
  51768.969   -3.2904E-23
  51769.031   -2.7231E-23
  51769.094   -1.8286E-23
  51769.156   -1.6934E-23
  51769.219   -1.2050E-23
  51769.281   -9.9300E-24
  51769.344   -2.6610E-24
  51769.406   -1.3873E-23
  51769.465   -4.1311E-23
  51769.527   -5.0896E-23
  51769.590   -5.4611E-23
  51769.652   -7.1240E-23
  51769.715   -6.2076E-23
  51769.777   -3.6716E-23
  51769.840   -2.9412E-25
  51769.902    2.3968E-23
  51769.965    2.2257E-23
  51770.027    3.5730E-24
  51770.090   -1.1318E-23
  51770.152   -1.3114E-23
  51770.215   -2.1153E-23
  51770.270   -3.3670E-23
  51770.332   -4.7145E-23
  51770.395   -5.2040E-23
  51770.457   -4.8464E-23
  51770.520   -4.3703E-23
  51770.582   -4.0119E-23
  51770.645   -2.4514E-23
  51770.707   -1.3326E-23
  51770.770   -6.1275E-24
  51770.832   -5.0793E-25
  51770.895    2.1651E-23
  51770.957    2.6931E-23
  51771.020    2.4441E-23
  51771.082    3.7096E-23
  51771.141    4.7969E-23
  51771.203    5.0563E-23
  51771.266    5.1702E-23
  51771.328    6.3066E-23
  51771.391    4.9606E-23
  51771.453    2.0518E-23
  51771.516    1.5881E-23
  51771.578    2.9253E-23
  51771.641    4.4748E-23
  51771.699    4.8908E-23
  51771.762    4.1813E-23
  51771.824    3.1396E-23
  51771.887    8.8993E-24
  51771.949   -6.8286E-24
  51772.012   -2.3045E-23
  51772.074   -2.6902E-23
  51772.137   -2.4497E-23
  51772.199   -3.7996E-23
  51772.262   -3.3056E-23
  51772.324   -1.0670E-23
  51772.387    6.1550E-24
  51772.449    1.1161E-23
  51772.512    1.2192E-23
  51772.566    4.6113E-24
  51772.629    8.3715E-25
  51772.691    9.0910E-24
  51772.754    1.6427E-23
  51772.816    2.2444E-23
  51772.879    3.1135E-23
  51772.941    2.9343E-23
  51773.004    2.9609E-23
  51773.066    2.2980E-23
  51773.129    1.0835E-23
  51773.191    6.8060E-24
  51773.254    4.7790E-24
  51773.316   -5.4549E-24
  51773.379   -1.1119E-24
  51773.438    7.4037E-24
  51773.500    1.0467E-23
  51773.563    2.7309E-23
  51773.625    4.0711E-23
  51773.688    3.4171E-23
  51773.750    2.4557E-23
  51773.813    1.5857E-23
  51773.875    1.1820E-23
  51773.938    2.5116E-23
  51774.000    4.0764E-23
  51774.059    4.1280E-23
  51774.121    3.6832E-23
  51774.184    2.9358E-23
  51774.246    2.2139E-23
  51774.309    1.8461E-23
  51774.371    3.9732E-25
  51774.434    3.1656E-24
  51774.496    1.7471E-23
  51774.559    2.4940E-23
  51774.621    2.7470E-23
  51774.684    1.5352E-23
  51774.746    6.2307E-24
  51774.809    4.0281E-24
  51774.863   -9.3726E-24
  51774.926   -6.3135E-24
  51774.988    1.5482E-23
  51775.051    3.6617E-23
  51775.113    4.8619E-23
  51775.176    4.5707E-23
  51775.238    4.8148E-23
  51775.301    4.3682E-23
  51775.363    3.7159E-23
  51775.426    4.3098E-23
  51775.488    5.2291E-23
  51775.551    4.6424E-23
  51775.613    5.2487E-23
  51775.676    5.8748E-23
  51775.738    5.7483E-23
  51775.797    6.6248E-23
  51775.859    6.0828E-23
  51775.922    7.2461E-23
  51775.984    7.6887E-23
  51776.047    5.3243E-23
  51776.109    3.8961E-23
  51776.172    4.7436E-23
  51776.234    6.2546E-23
  51776.297    6.7142E-23
  51776.355    5.6858E-23
  51776.418    6.6716E-23
  51776.480    8.8169E-23
  51776.543    1.0698E-22
  51776.605    1.1139E-22
  51776.668    9.3275E-23
  51776.730    8.6870E-23
  51776.793    6.2752E-23
  51776.855    3.0964E-23
  51776.918    1.6244E-23
  51776.980    7.1209E-24
  51777.043    1.6124E-23
  51777.105    3.9980E-23
  51777.168    5.3392E-23
  51777.223    5.2782E-23
  51777.285    4.7528E-23
  51777.348    4.7154E-23
  51777.410    5.0137E-23
  51777.473    4.0745E-23
  51777.535    3.7710E-23
  51777.598    4.1241E-23
  51777.660    5.0296E-23
  51777.723    5.2274E-23
  51777.785    5.6137E-23
  51777.848    5.7400E-23
  51777.910    5.7216E-23
  51777.973    6.9679E-23
  51778.035    7.4443E-23
  51778.094    7.0410E-23
  51778.156    6.7284E-23
  51778.219    6.7662E-23
  51778.281    5.0000E-23
  51778.344    3.6267E-23
  51778.406    4.2370E-23
  51778.469    6.2737E-23
  51778.531    7.6172E-23
  51778.594    8.3816E-23
  51778.652    9.6411E-23
  51778.715    1.1054E-22
  51778.777    1.1192E-22
  51778.840    9.5846E-23
  51778.902    7.7325E-23
  51778.965    6.0860E-23
  51779.027    5.7142E-23
  51779.090    4.9157E-23
  51779.152    6.4463E-23
  51779.215    7.2960E-23
  51779.277    5.7834E-23
  51779.340    3.9443E-23
  51779.402    4.8424E-23
  51779.465    6.2574E-23
  51779.527    5.8603E-23
  51779.582    4.7992E-23
  51779.645    3.9694E-23
  51779.707    3.5884E-23
  51779.770    2.8109E-23
  51779.832    3.7051E-23
  51779.895    5.3902E-23
  51779.957    9.2615E-23
  51780.020    1.2478E-22
  51780.082    1.3569E-22
  51780.145    1.2657E-22
  51780.207    1.2878E-22
  51780.270    1.2846E-22
  51780.332    1.2759E-22
  51780.395    1.1194E-22
  51780.453    7.2783E-23
  51780.516    4.7931E-23
  51780.578    2.1512E-23
  51780.641    3.7636E-24
  51780.703   -1.0052E-23
  51780.766   -1.4200E-23
  51780.828   -7.9988E-24
  51780.891   -3.6046E-25
  51780.953    1.5865E-23
  51781.012    2.2340E-23
  51781.074    1.7095E-23
  51781.137    9.6523E-24
  51781.199    5.5136E-24
  51781.262    1.7860E-23
  51781.324    4.2953E-23
  51781.387    6.6549E-23
  51781.449    7.8308E-23
  51781.512    7.6595E-23
  51781.574    7.5494E-23
  51781.637    8.3018E-23
  51781.699    8.5359E-23
  51781.762    8.8208E-23
  51781.824    8.3654E-23
  51781.887    7.4185E-23
  51781.941    5.6168E-23
  51782.004    3.3723E-23
  51782.066    1.9403E-23
  51782.129    3.0536E-23
  51782.191    4.9855E-23
  51782.254    5.7208E-23
  51782.316    6.7243E-23
  51782.379    5.9044E-23
  51782.441    5.3810E-23
  51782.504    4.9239E-23
  51782.566    3.7620E-23
  51782.629    4.1278E-23
  51782.691    2.8347E-23
  51782.754    6.2036E-24
  51782.813   -6.6813E-24
  51782.875   -2.1464E-23
  51782.938   -2.8272E-23
  51783.000   -1.6911E-23
  51783.063   -1.4496E-24
  51783.125    1.6879E-23
  51783.188    5.4614E-23
  51783.250    9.5100E-23
  51783.313    1.1233E-22
  51783.375    1.0102E-22
  51783.434    4.1078E-23
  51783.496    4.1067E-24
  51783.559    8.7625E-24
  51783.621    1.5790E-23
  51783.684    3.9878E-23
  51783.746    3.9911E-23
  51783.809    3.5179E-23
  51783.871    3.7903E-23
  51783.934    4.5257E-23
  51783.996    4.4144E-23
  51784.059    2.9581E-23
  51784.121    1.9487E-23
  51784.184    3.0989E-23
  51784.246    4.1716E-23
  51784.301    5.6307E-23
  51784.363    6.4629E-23
  51784.426    6.4436E-23
  51784.488    5.5138E-23
  51784.551    4.6547E-23
  51784.613    2.8330E-23
  51784.676    6.0627E-24
  51784.738   -2.3374E-23
  51784.801   -3.0482E-23
  51784.863   -3.8053E-23
  51784.926   -4.3911E-23
  51784.988   -2.3403E-23
  51785.051   -4.3660E-24
  51785.113    1.5644E-23
  51785.172    2.4774E-23
  51785.234    2.7609E-23
  51785.297    3.1621E-23
  51785.359    3.8214E-23
  51785.422    3.5963E-23
  51785.484    1.6976E-23
  51785.547   -7.2799E-24
  51785.609   -2.4064E-23
  51785.672   -4.0684E-23
  51785.734   -4.1788E-23
  51785.793   -3.1398E-23
  51785.855   -3.4968E-23
  51785.918   -2.4398E-23
  51785.980   -2.7603E-24
  51786.043    6.9120E-24
  51786.105   -5.3246E-25
  51786.168   -2.1942E-24
  51786.230   -2.8566E-24
  51786.293    8.9439E-24
  51786.355    3.5136E-23
  51786.418    5.2220E-23
  51786.480    6.5274E-23
  51786.543    7.5681E-23
  51786.605    6.4544E-23
  51786.660    5.0527E-23
  51786.723    3.8290E-23
  51786.785    1.6126E-23
  51786.848    1.4467E-23
  51786.910    2.1429E-23
  51786.973    3.5000E-23
  51787.035    5.1420E-23
  51787.098    6.9053E-23
  51787.160    6.4078E-23
  51787.223    7.7462E-23
  51787.285    6.7509E-23
  51787.348    5.2128E-23
  51787.410    4.6596E-23
  51787.473    4.2852E-23
  51787.535    5.6345E-23
  51787.594    5.4963E-23
  51787.656    5.9749E-23
  51787.719    6.4343E-23
  51787.781    4.8876E-23
  51787.844    4.3893E-23
  51787.906    3.0646E-23
  51787.969    3.9508E-24
  51788.031   -2.2044E-23
  51788.094   -3.2140E-23
  51788.156   -2.0048E-23
  51788.215    2.4089E-24
  51788.277    2.8687E-23
  51788.340    5.4087E-23
  51788.402    6.1207E-23
  51788.465    6.0338E-23
  51788.527    5.8715E-23
  51788.590    6.0390E-23
  51788.652    7.7894E-23
  51788.715    8.9246E-23
  51788.777    8.6196E-23
  51788.840    7.0434E-23
  51788.902    6.7131E-23
  51788.965    7.0539E-23
  51789.027    6.0097E-23
  51789.082    5.1700E-23
  51789.145    5.2386E-23
  51789.207    7.2418E-23
  51789.270    8.3863E-23
  51789.332    8.3992E-23
  51789.395    1.0156E-22
  51789.457    9.9703E-23
  51789.520    8.7280E-23
  51789.582    7.4587E-23
  51789.645    5.0133E-23
  51789.707    4.0734E-23
  51789.770    3.1515E-23
  51789.832    3.0922E-23
  51789.895    2.3940E-23
  51789.957    1.2940E-23
  51790.016    1.0226E-24
  51790.078    1.0025E-23
  51790.141    5.3384E-25
  51790.203   -2.6570E-23
  51790.266   -4.8592E-23
  51790.328   -5.1135E-23
  51790.391   -4.2753E-23
  51790.453   -2.1136E-23
  51790.516    2.8783E-23
  51790.578    5.8627E-23
  51790.637    5.7679E-23
  51790.699    5.6168E-23
  51790.762    6.4681E-23
  51790.824    6.2972E-23
  51790.887    6.4612E-23
  51790.949    4.9035E-23
  51791.012    2.2629E-23
  51791.074   -1.9870E-23
  51791.137   -5.6395E-23
  51791.199   -6.1091E-23
  51791.262   -5.2001E-23
  51791.324   -4.6126E-23
  51791.387   -2.3159E-23
  51791.449   -1.3686E-23
  51791.504    1.2365E-25
  51791.566    2.3428E-23
  51791.629    4.2005E-23
  51791.691    6.2027E-23
  51791.754    6.5345E-23
  51791.816    5.2952E-23
  51791.879    3.3900E-23
  51791.941    1.7956E-23
  51792.004    7.1122E-24
  51792.066    1.0729E-23
  51792.129    1.0313E-23
  51792.191    3.9777E-24
  51792.254   -4.1053E-25
  51792.316   -1.3592E-23
  51792.379   -1.2486E-23
  51792.438   -2.4691E-23
  51792.500   -3.6359E-23
  51792.563   -3.1333E-23
  51792.625   -3.9819E-24
  51792.688    1.4288E-23
  51792.750    3.1880E-23
  51792.813    2.2833E-23
  51792.875    1.5306E-24
  51792.938   -1.2748E-23
  51793.000   -1.7522E-23
  51793.059   -2.1175E-23
  51793.121   -1.2279E-23
  51793.184   -1.8187E-24
  51793.246    6.0360E-24
  51793.309    1.4365E-23
  51793.371    1.9671E-23
  51793.434    1.2680E-23
  51793.496   -1.8439E-23
  51793.559   -3.8668E-23
  51793.621   -2.2646E-23
  51793.684   -5.0771E-24
  51793.746    1.9902E-23
  51793.809    5.0970E-23
  51793.871    7.1489E-23
  51793.934    7.9695E-23
  51793.988    5.5277E-23
  51794.051    3.9868E-23
  51794.113    2.9844E-23
  51794.176    1.7087E-23
  51794.238    2.1548E-23
  51794.301    2.7408E-23
  51794.363    1.6139E-23
  51794.426    3.2462E-23
  51794.488    5.8520E-23
  51794.551    6.5438E-23
  51794.613    6.9413E-23
  51794.676    6.3167E-23
  51794.738    5.4499E-23
  51794.801    6.3799E-23
  51794.863    5.9657E-23
  51794.922    5.7249E-23
  51794.984    5.6318E-23
  51795.047    5.2621E-23
  51795.109    4.8471E-23
  51795.172    6.2105E-23
  51795.234    7.0042E-23
  51795.297    7.0042E-23
  51795.359    7.4098E-23
  51795.422    7.7538E-23
  51795.484    8.1484E-23
  51795.543    1.1045E-22
  51795.605    1.1507E-22
  51795.668    1.0758E-22
  51795.730    1.0754E-22
  51795.793    8.7303E-23
  51795.855    8.1242E-23
  51795.918    8.2702E-23
  51795.980    9.3054E-23
  51796.043    1.1515E-22
  51796.105    1.1706E-22
  51796.168    1.0627E-22
  51796.230    1.0409E-22
  51796.293    1.0747E-22
  51796.355    1.1660E-22
  51796.418    1.3750E-22
  51796.473    1.5140E-22
  51796.535    1.5261E-22
  51796.598    1.4429E-22
  51796.660    1.5556E-22
  51796.723    1.6206E-22
  51796.785    1.5793E-22
  51796.848    1.4786E-22
  51796.910    1.3600E-22
  51796.973    1.2008E-22
  51797.035    1.1670E-22
  51797.098    1.2996E-22
  51797.160    1.3968E-22
  51797.223    1.4490E-22
  51797.285    1.3388E-22
  51797.348    1.2206E-22
  51797.406    1.1658E-22
  51797.469    1.2519E-22
  51797.531    1.2720E-22
  51797.594    1.4081E-22
  51797.656    1.5742E-22
  51797.719    1.6088E-22
  51797.781    1.6066E-22
  51797.844    1.3992E-22
  51797.906    1.0722E-22
  51797.969    9.9002E-23
  51798.027    8.0189E-23
  51798.090    5.4246E-23
  51798.152    4.5344E-23
  51798.215    3.5927E-23
  51798.277    2.9164E-23
  51798.340    3.7707E-23
  51798.402    4.9181E-23
  51798.465    5.6359E-23
  51798.527    4.2553E-23
  51798.590    3.2483E-23
  51798.652    4.6412E-23
  51798.715    7.6696E-23
  51798.777    1.2400E-22
  51798.840    1.4623E-22
  51798.902    1.5000E-22
  51798.957    1.3604E-22
  51799.020    1.1267E-22
  51799.082    8.8230E-23
  51799.145    7.7063E-23
  51799.207    7.6479E-23
  51799.270    7.8736E-23
  51799.332    7.1814E-23
  51799.395    7.4376E-23
  51799.457    9.0545E-23
  51799.520    8.5777E-23
  51799.582    8.4687E-23
  51799.645    8.8470E-23
  51799.707    8.0897E-23
  51799.770    7.2040E-23
  51799.832    8.0421E-23
  51799.891    7.7581E-23
  51799.953    6.7138E-23
  51800.016    7.5778E-23
  51800.078    7.7305E-23
  51800.141    5.8710E-23
  51800.203    4.7336E-23
  51800.266    3.6039E-23
  51800.328    3.1300E-23
  51800.391    3.0064E-23
  51800.453    5.8806E-23
  51800.512    8.2906E-23
  51800.574    9.2209E-23
  51800.637    8.4071E-23
  51800.699    6.4470E-23
  51800.762    5.1694E-23
  51800.824    4.6476E-23
  51800.887    4.1560E-23
  51800.949    5.1122E-23
  51801.012    7.6277E-23
  51801.074    8.5520E-23
  51801.137    9.1725E-23
  51801.199    9.7951E-23
  51801.262    8.7146E-23
  51801.324    6.8385E-23
  51801.387    5.8190E-23
  51801.441    4.8534E-23
  51801.504    3.3177E-23
  51801.566    4.4120E-23
  51801.629    6.0692E-23
  51801.691    7.4958E-23
  51801.754    7.1102E-23
  51801.816    5.9364E-23
  51801.879    5.0390E-23
  51801.941    4.6141E-23
  51802.004    4.4688E-23
  51802.066    3.3679E-23
  51802.129    3.1759E-23
  51802.191    5.7272E-23
  51802.254    8.5284E-23
  51802.316    9.8722E-23
  51802.375    9.9784E-23
  51802.438    7.8136E-23
  51802.500    6.0153E-23
  51802.563    5.3324E-23
  51802.625    3.8010E-23
  51802.688    4.3058E-23
  51802.750    7.2470E-23
  51802.813    9.2142E-23
  51802.875    8.6512E-23
  51802.938    5.5478E-23
  51803.000    4.3017E-23
  51803.059    4.7373E-23
  51803.121    6.7744E-23
  51803.184    7.5227E-23
  51803.246    8.4895E-23
  51803.309    9.8559E-23
  51803.371    1.0588E-22
  51803.434    1.1950E-22
  51803.496    1.2992E-22
  51803.559    1.2473E-22
  51803.621    9.8254E-23
  51803.684    7.0322E-23
  51803.746    5.5821E-23
  51803.809    3.6153E-23
  51803.871    1.5227E-23
  51803.934    2.0687E-23
  51803.988    4.4617E-23
  51804.051    8.2259E-23
  51804.113    1.0078E-22
  51804.176    9.3403E-23
  51804.238    8.4832E-23
  51804.301    8.2736E-23
  51804.363    6.9238E-23
  51804.426    6.0865E-23
  51804.488    4.0814E-23
  51804.551    3.3556E-23
  51804.613    2.5230E-23
  51804.676    5.0229E-24
  51804.738   -1.0231E-23
  51804.801    2.5981E-24
  51804.863    2.4078E-23
  51804.922    2.4948E-23
  51804.984    9.1493E-24
  51805.047   -2.7068E-24
  51805.109    9.5224E-25
  51805.172    1.1752E-23
  51805.234    2.9983E-23
  51805.297    3.8240E-23
  51805.359    4.7855E-23
  51805.422    5.7640E-23
  51805.484    6.2571E-23
  51805.547    5.9924E-23
  51805.605    6.0795E-23
  51805.668    7.8400E-23
  51805.730    8.7681E-23
  51805.793    9.4592E-23
  51805.855    7.6683E-23
  51805.918    5.1612E-23
  51805.980    5.2962E-23
  51806.043    4.1130E-23
  51806.105    2.9416E-23
  51806.168    9.3414E-24
  51806.230    8.5639E-25
  51806.293    1.9490E-24
  51806.355   -4.2964E-24
  51806.418   -8.9889E-24
  51806.480   -4.5510E-24
  51806.535    2.9849E-24
  51806.598    8.2498E-24
  51806.660    1.8592E-23
  51806.723    3.2769E-23
  51806.785    5.3966E-23
  51806.848    6.3140E-23
  51806.910    6.7086E-23
  51806.973    5.8629E-23
  51807.035    4.4384E-23
  51807.098    3.7002E-23
  51807.160    3.0888E-23
  51807.223    2.7330E-23
  51807.285    2.5831E-23
  51807.348    2.2642E-23
  51807.410    1.9658E-23
  51807.469    1.2157E-23
  51807.531    1.4678E-23
  51807.594    2.6913E-23
  51807.656    5.3254E-23
  51807.719    7.8940E-23
  51807.781    1.0334E-22
  51807.844    1.1950E-22
  51807.906    1.0387E-22
  51807.969    8.5706E-23
  51808.031    8.3063E-23
  51808.094    7.3858E-23
  51808.152    6.9451E-23
  51808.215    6.3545E-23
  51808.277    5.8578E-23
  51808.340    5.1129E-23
  51808.402    5.9682E-23
  51808.465    6.8112E-23
  51808.527    6.9634E-23
  51808.590    7.6680E-23
  51808.652    1.0380E-22
  51808.715    1.1148E-22
  51808.777    1.1280E-22
  51808.840    1.1758E-22
  51808.902    1.0595E-22
  51808.965    8.9412E-23
  51809.027    6.4322E-23
  51809.082    6.2819E-23
  51809.145    7.8405E-23
  51809.207    9.0382E-23
  51809.270    8.4646E-23
  51809.332    5.5165E-23
  51809.395    5.4555E-23
  51809.457    6.7097E-23
  51809.520    7.7130E-23
  51809.582    6.2081E-23
  51809.645    7.4622E-23
  51809.707    9.3235E-23
  51809.770    1.1940E-22
  51809.832    1.2993E-22
  51809.895    1.2145E-22
  51809.957    1.1615E-22
  51810.020    1.0989E-22
  51810.078    1.1134E-22
  51810.141    1.2529E-22
  51810.203    1.3647E-22
  51810.266    1.2893E-22
  51810.328    1.1963E-22
  51810.391    1.2304E-22
  51810.453    1.1770E-22
  51810.516    1.1227E-22
  51810.578    1.1484E-22
  51810.641    1.1574E-22
  51810.699    1.4354E-22
  51810.762    1.7504E-22
  51810.824    1.9598E-22
  51810.887    2.1458E-22
  51810.949    2.1903E-22
  51811.012    1.9999E-22
  51811.074    1.8520E-22
  51811.137    1.8276E-22
  51811.199    1.7203E-22
  51811.262    1.6108E-22
  51811.324    1.5506E-22
  51811.387    1.6074E-22
  51811.449    1.6844E-22
  51811.512    1.8040E-22
  51811.574    1.8595E-22
  51811.637    1.7781E-22
  51811.691    1.7980E-22
  51811.754    1.7781E-22
  51811.816    1.7823E-22
  51811.879    1.7930E-22
  51811.941    1.9591E-22
  51812.004    2.2145E-22
  51812.066    2.3045E-22
  51812.129    2.3159E-22
  51812.191    2.6367E-22
  51812.254    2.6763E-22
  51812.316    2.7180E-22
  51812.379    2.6171E-22
  51812.441    2.5744E-22
  51812.504    2.4237E-22
  51812.566    2.1489E-22
  51812.629    1.9859E-22
  51812.688    1.8936E-22
  51812.750    2.1360E-22
  51812.813    2.2985E-22
  51812.875    2.3357E-22
  51812.938    2.3282E-22
  51813.000    2.4282E-22
  51813.063    2.5139E-22
  51813.125    2.6962E-22
  51813.188    2.8287E-22
  51813.250    2.9390E-22
  51813.313    2.9132E-22
  51813.371    3.0281E-22
  51813.434    3.1202E-22
  51813.496    3.1871E-22
  51813.559    3.2707E-22
  51813.621    3.2778E-22
  51813.684    3.2266E-22
  51813.746    3.2384E-22
  51813.809    3.2429E-22
  51813.871    3.3397E-22
  51813.934    3.3197E-22
  51813.996    3.1952E-22
  51814.059    3.1813E-22
  51814.121    3.0608E-22
  51814.184    2.9674E-22
  51814.246    3.0030E-22
  51814.301    3.0716E-22
  51814.363    3.0996E-22
  51814.426    3.1423E-22
  51814.488    2.8635E-22
  51814.551    2.7708E-22
  51814.613    2.6445E-22
  51814.676    2.6322E-22
  51814.738    2.5571E-22
  51814.801    2.5641E-22
  51814.863    2.5486E-22
  51814.926    2.7137E-22
  51814.988    2.8474E-22
  51815.051    2.8857E-22
  51815.113    2.9117E-22
  51815.176    2.8087E-22
  51815.238    2.6378E-22
  51815.297    2.4671E-22
  51815.359    2.2326E-22
  51815.422    2.0109E-22
  51815.484    1.8299E-22
  51815.547    1.8255E-22
  51815.609    1.8488E-22
  51815.672    1.8958E-22
  51815.734    1.9582E-22
  51815.797    2.0964E-22
  51815.859    2.1914E-22
  51815.922    2.2573E-22
  51815.980    2.3596E-22
  51816.043    2.4815E-22
  51816.105    2.5075E-22
  51816.168    2.5123E-22
  51816.230    2.4924E-22
  51816.293    2.1293E-22
  51816.355    2.1686E-22
  51816.418    2.2294E-22
  51816.480    2.2631E-22
  51816.543    2.2929E-22
  51816.605    2.2138E-22
  51816.668    2.1007E-22
  51816.730    1.8703E-22
  51816.793    1.8756E-22
  51816.855    1.9872E-22
  51816.918    1.9630E-22
  51816.973    1.8687E-22
  51817.035    1.7222E-22
  51817.098    1.3555E-22
  51817.160    1.1144E-22
  51817.223    1.0024E-22
  51817.285    1.0216E-22
  51817.348    1.0972E-22
  51817.410    1.0215E-22
  51817.473    8.6071E-23
  51817.535    8.1823E-23
  51817.598    9.2574E-23
  51817.660    8.8604E-23
  51817.723    1.0722E-22
  51817.785    1.0491E-22
  51817.848    9.9338E-23
  51817.910    9.4623E-23
  51817.969    8.0120E-23
  51818.031    9.7929E-23
  51818.094    1.0656E-22
  51818.156    1.1808E-22
  51818.219    1.2658E-22
  51818.281    1.2473E-22
  51818.344    1.2260E-22
  51818.406    1.1386E-22
  51818.469    1.0863E-22
  51818.531    9.0287E-23
  51818.594    5.7911E-23
  51818.652    3.4536E-23
  51818.715    3.9094E-23
  51818.777    5.0965E-23
  51818.840    6.6605E-23
  51818.902    1.0538E-22
  51818.965    1.3316E-22
  51819.027    1.4634E-22
  51819.090    1.4619E-22
  51819.152    1.1120E-22
  51819.215    8.6550E-23
  51819.277    7.4832E-23
  51819.340    6.7789E-23
  51819.402    6.0598E-23
  51819.465    5.8706E-23
  51819.527    7.9381E-23
  51819.590    8.9414E-23
  51819.645    7.4909E-23
  51819.707    5.5273E-23
  51819.770    4.7371E-23
  51819.832    2.9459E-23
  51819.895    3.2296E-23
  51819.957    6.4399E-23
  51820.020    9.7568E-23
  51820.082    1.1081E-22
  51820.145    1.2055E-22
  51820.207    1.0712E-22
  51820.270    9.3927E-23
  51820.332    9.2559E-23
  51820.395    7.6349E-23
  51820.457    4.8957E-23
  51820.520    3.4444E-23
  51820.582    2.7115E-23
  51820.641    3.5639E-23
  51820.703    3.6491E-23
  51820.766    3.4158E-23
  51820.828    3.8039E-23
  51820.891    4.2671E-23
  51820.953    4.2247E-23
  51821.016    2.5694E-23
  51821.078    2.0846E-23
  51821.141    1.8263E-23
  51821.203    1.7985E-23
  51821.266    2.5634E-23
  51821.324    3.1712E-23
  51821.387    4.8865E-23
  51821.449    5.7933E-23
  51821.512    5.4318E-23
  51821.574    6.0164E-23
  51821.637    7.2257E-23
  51821.699    6.5805E-23
  51821.762    6.0013E-23
  51821.824    5.5617E-23
  51821.887    5.3555E-23
  51821.949    6.0439E-23
  51822.012    7.5002E-23
  51822.074    7.4239E-23
  51822.137    5.8979E-23
  51822.199    4.4711E-23
  51822.262    3.8025E-23
  51822.316    2.4868E-23
  51822.379    3.0402E-23
  51822.441    5.1085E-23
  51822.504    5.0229E-23
  51822.566    4.7328E-23
  51822.629    6.0762E-23
  51822.691    6.8327E-23
  51822.754    8.6664E-23
  51822.816    1.0404E-22
  51822.879    1.2012E-22
  51822.941    1.1941E-22
  51823.004    1.1251E-22
  51823.066    1.0718E-22
  51823.129    9.1047E-23
  51823.191    9.0964E-23
  51823.254    8.2823E-23
  51823.316    6.1082E-23
  51823.375    5.5505E-23
  51823.438    5.9583E-23
  51823.500    8.5719E-23
  51823.563    1.0765E-22
  51823.625    1.1096E-22
  51823.688    9.9423E-23
  51823.750    9.4763E-23
  51823.813    7.5746E-23
  51823.875    6.9760E-23
  51823.938    7.4584E-23
  51824.000    9.1739E-23
  51824.059    1.1885E-22
  51824.121    1.2109E-22
  51824.184    1.0261E-22
  51824.246    8.7836E-23
  51824.309    8.2470E-23
  51824.371    8.9179E-23
  51824.434    1.0445E-22
  51824.496    1.1692E-22
  51824.559    1.3453E-22
  51824.621    1.4264E-22
  51824.684    1.5038E-22
  51824.746    1.7206E-22
  51824.809    1.7261E-22
  51824.871    1.6650E-22
  51824.934    1.3546E-22
  51824.996    1.1208E-22
  51825.051    1.1303E-22
  51825.113    1.2343E-22
  51825.176    1.3813E-22
  51825.238    1.4703E-22
  51825.301    1.3271E-22
  51825.363    1.3508E-22
  51825.426    1.3881E-22
  51825.488    1.2789E-22
  51825.551    1.1968E-22
  51825.613    1.4056E-22
  51825.676    1.6344E-22
  51825.738    1.8507E-22
  51825.801    1.9394E-22
  51825.863    1.9170E-22
  51825.926    1.9650E-22
  51825.988    1.9682E-22
  51826.051    1.9864E-22
  51826.109    1.7115E-22
  51826.172    1.4584E-22
  51826.234    1.2212E-22
  51826.297    1.0227E-22
  51826.359    1.1198E-22
  51826.422    1.1864E-22
  51826.484    1.2188E-22
  51826.547    1.2957E-22
  51826.609    1.3592E-22
  51826.672    1.3838E-22
  51826.734    1.3972E-22
  51826.793    1.5410E-22
  51826.855    1.7932E-22
  51826.918    2.1333E-22
  51826.980    2.2294E-22
  51827.043    2.3357E-22
  51827.105    2.3891E-22
  51827.168    2.6524E-22
  51827.230    2.9407E-22
  51827.293    3.0200E-22
  51827.355    3.0362E-22
  51827.418    3.1189E-22
  51827.480    3.0529E-22
  51827.543    3.1503E-22
  51827.605    3.3324E-22
  51827.668    3.3537E-22
  51827.730    3.2312E-22
  51827.785    3.2227E-22
  51827.848    3.3126E-22
  51827.910    3.3818E-22
  51827.973    3.6102E-22
  51828.035    4.0373E-22
  51828.098    4.3417E-22
  51828.160    4.4659E-22
  51828.223    4.5728E-22
  51828.285    4.6025E-22
  51828.348    4.8347E-22
  51828.410    4.9101E-22
  51828.473    5.0202E-22
  51828.535    4.8574E-22
  51828.598    4.9400E-22
  51828.660    5.0103E-22
  51828.723    4.8849E-22
  51828.785    4.8347E-22
  51828.844    4.9101E-22
  51828.906    5.0354E-22
  51828.969    5.0103E-22
  51829.031    5.1167E-22
  51829.094    5.0753E-22
  51829.156    5.1208E-22
  51829.219    5.1248E-22
  51829.281    5.1163E-22
  51829.344    5.0114E-22
  51829.406    4.8424E-22
  51829.469    4.7192E-22
  51829.527    4.6977E-22
  51829.590    4.6742E-22
  51829.652    4.6968E-22
  51829.715    4.8086E-22
  51829.777    4.8553E-22
  51829.840    4.9799E-22
  51829.902    5.1283E-22
  51829.965    5.0726E-22
  51830.027    5.0845E-22
  51830.090    5.1331E-22
  51830.152    5.0446E-22
  51830.215    5.1389E-22
  51830.277    5.0636E-22
  51830.340    4.8448E-22
  51830.402    4.6919E-22
  51830.465    4.5156E-22
  51830.527    4.4386E-22
  51830.582    4.4113E-22
  51830.645    4.5870E-22
  51830.707    4.7165E-22
  51830.770    4.7006E-22
  51830.832    4.7317E-22
  51830.895    4.6270E-22
  51830.957    4.4885E-22
  51831.020    4.4350E-22
  51831.082    4.4706E-22
  51831.145    4.6534E-22
  51831.207    4.7646E-22
  51831.270    4.7708E-22
  51831.332    4.7743E-22
  51831.395    4.7127E-22
  51831.457    4.6610E-22
  51831.520    4.5842E-22
  51831.582    4.3486E-22
  51831.641    4.1708E-22
  51831.703    4.0337E-22
  51831.766    4.0023E-22
  51831.828    4.0326E-22
  51831.891    3.7638E-22
  51831.953    3.5250E-22
  51832.016    3.2610E-22
  51832.078    3.1291E-22
  51832.141    3.0548E-22
  51832.203    2.9699E-22
  51832.266    2.8435E-22
  51832.324    2.7582E-22
  51832.387    2.8893E-22
  51832.449    3.0471E-22
  51832.512    3.2100E-22
  51832.574    3.2801E-22
  51832.637    3.1002E-22
  51832.699    2.9658E-22
  51832.762    2.9209E-22
  51832.824    2.9043E-22
  51832.887    2.9370E-22
  51832.949    2.8310E-22
  51833.012    2.8617E-22
  51833.074    2.8393E-22
  51833.137    2.7844E-22
  51833.199    2.7483E-22
  51833.262    2.6696E-22
  51833.324    2.6539E-22
  51833.379    2.7545E-22
  51833.441    2.8407E-22
  51833.504    2.9934E-22
  51833.566    2.9963E-22
  51833.629    2.8595E-22
  51833.691    2.6311E-22
  51833.754    2.4389E-22
  51833.816    2.2889E-22
  51833.879    2.2225E-22
  51833.941    2.1580E-22
  51834.004    2.0383E-22
  51834.066    2.0713E-22
  51834.129    2.1703E-22
  51834.191    2.2323E-22
  51834.254    2.2665E-22
  51834.316    2.3594E-22
  51834.379    2.3957E-22
  51834.438    2.4183E-22
  51834.500    2.4067E-22
  51834.563    2.4172E-22
  51834.625    2.4109E-22
  51834.688    2.3845E-22
  51834.750    2.3605E-22
  51834.813    2.3426E-22
  51834.875    2.3005E-22
  51834.938    2.1789E-22
  51835.000    2.0756E-22
  51835.063    2.0225E-22
  51835.121    2.0830E-22
  51835.184    2.1020E-22
  51835.246    1.9986E-22
  51835.309    1.9927E-22
  51835.371    1.9737E-22
  51835.434    1.9500E-22
  51835.496    1.8763E-22
  51835.559    1.7516E-22
  51835.621    1.7002E-22
  51835.684    2.2400E-22
  51835.746    2.3473E-22
  51835.809    1.9852E-22
  51835.871    1.8396E-22
  51835.934    1.6667E-22
  51835.996    1.1519E-22
  51836.059    1.7263E-22
  51836.121    1.1336E-22
  51836.184    1.1845E-22
  51836.238    1.1314E-22
  51836.301    1.2214E-22
  51836.363    1.3579E-22
  51836.426    1.5336E-22
  51836.488    1.6363E-22
  51836.551    1.6642E-22
  51836.613    1.5943E-22
  51836.676    1.5976E-22
  51836.738    1.6237E-22
  51836.801    1.6571E-22
  51836.863    1.5877E-22
  51836.926    1.3865E-22
  51836.988    1.2985E-22
  51837.051    1.2552E-22
  51837.113    1.4221E-22
  51837.176    1.7124E-22
  51837.238    1.8181E-22
  51837.297    1.6109E-22
  51837.359    1.3412E-22
  51837.422    1.3119E-22
  51837.484    1.2676E-22
  51837.547    1.2934E-22
  51837.609    1.3647E-22
  51837.672    1.4250E-22
  51837.734    1.4542E-22
  51837.797    1.5468E-22
  51837.859    1.6245E-22
  51837.922    1.7341E-22
  51837.980    1.8040E-22
  51838.043    1.9435E-22
  51838.105    1.9764E-22
  51838.168    1.8939E-22
  51838.230    1.5672E-22
  51838.293    1.2009E-22
  51838.355    1.0254E-22
  51838.418    1.1498E-22
  51838.480    1.3122E-22
  51838.543    1.4007E-22
  51838.605    1.4704E-22
  51838.668    1.7102E-22
  51838.730    1.8896E-22
  51838.793    1.8508E-22
  51838.855    1.8486E-22
  51838.918    1.8669E-22
  51838.980    1.7958E-22
  51839.043    1.7734E-22
  51839.098    1.7422E-22
  51839.160    1.7447E-22
  51839.223    1.8335E-22
  51839.285    1.9263E-22
  51839.348    2.1955E-22
  51839.410    2.4333E-22
  51839.473    2.4837E-22
  51839.535    2.4140E-22
  51839.598    2.1847E-22
  51839.660    2.2115E-22
  51839.723    2.4727E-22
  51839.785    2.7880E-22
  51839.848    2.9901E-22
  51839.910    2.9839E-22
  51839.973    3.1222E-22
  51840.035    3.0929E-22
  51840.098    2.9725E-22
  51840.156    2.8989E-22
  51840.219    2.8906E-22
  51840.281    3.0328E-22
  51840.344    2.8897E-22
  51840.406    2.7835E-22
  51840.469    2.7769E-22
  51840.531    2.8807E-22
  51840.594    3.1721E-22
  51840.656    3.6767E-22
  51840.719    4.0012E-22
  51840.781    4.0457E-22
  51840.844    4.0413E-22
  51840.902    3.8265E-22
  51840.965    3.7154E-22
  51841.027    3.6944E-22
  51841.090    3.6465E-22
  51841.152    3.7799E-22
  51841.215    3.9846E-22
  51841.277    4.2106E-22
  51841.340    4.3709E-22
  51841.402    4.5662E-22
  51841.465    4.8988E-22
  51841.527    5.1602E-22
  51841.590    5.3837E-22
  51841.652    5.4916E-22
  51841.715    5.4699E-22
  51841.777    5.4085E-22
  51841.840    5.3171E-22
  51841.902    5.3496E-22
  51841.957    5.3263E-22
  51842.020    5.4603E-22
  51842.082    5.6007E-22
  51842.145    5.9785E-22
  51842.207    6.1490E-22
  51842.270    6.3043E-22
  51842.332    6.4190E-22
  51842.395    6.5988E-22
  51842.457    6.8099E-22
  51842.520    7.0432E-22
  51842.582    7.2130E-22
  51842.645    7.4526E-22
  51842.707    7.6868E-22
  51842.770    7.9039E-22
  51842.832    8.0848E-22
  51842.895    8.1649E-22
  51842.957    8.1275E-22
  51843.020    8.0385E-22
  51843.078    7.9558E-22
  51843.141    7.8654E-22
  51843.203    7.6924E-22
  51843.266    7.6293E-22
  51843.328    7.7001E-22
  51843.391    7.9404E-22
  51843.453    8.0911E-22
  51843.516    8.2771E-22
  51843.578    8.3522E-22
  51843.641    8.3065E-22
  51843.703    8.3410E-22
  51843.766    8.3596E-22
  51843.824    8.5198E-22
  51843.887    8.4792E-22
  51843.949    8.2700E-22
  51844.012    8.2124E-22
  51844.074    8.0686E-22
  51844.137    7.9706E-22
  51844.199    7.9009E-22
  51844.262    7.6799E-22
  51844.324    7.4514E-22
  51844.387    7.4361E-22
  51844.449    7.3966E-22
  51844.512    7.3226E-22
  51844.574    7.2826E-22
  51844.637    7.3039E-22
  51844.699    7.1386E-22
  51844.762    6.7733E-22
  51844.824    6.4457E-22
  51844.879    6.0903E-22
  51844.941    5.8150E-22
  51845.004    5.7532E-22
  51845.066    5.8623E-22
  51845.129    6.0065E-22
  51845.191    6.1639E-22
  51845.254    6.1738E-22
  51845.316    6.0591E-22
  51845.379    6.1292E-22
  51845.441    6.4078E-22
  51845.504    6.4094E-22
  51845.566    6.2578E-22
  51845.629    6.1922E-22
  51845.691    5.9633E-22
  51845.754    5.6548E-22
  51845.816    5.6432E-22
  51845.879    5.6123E-22
  51845.941    5.7575E-22
  51846.000    5.8427E-22
  51846.063    5.8997E-22
  51846.125    5.9807E-22
  51846.188    5.9888E-22
  51846.250    6.0672E-22
  51846.313    6.0441E-22
  51846.375    5.7967E-22
  51846.438    5.5207E-22
  51846.500    5.5357E-22
  51846.563    5.5041E-22
  51846.625    5.2889E-22
  51846.688    5.1487E-22
  51846.746    4.9075E-22
  51846.809    4.8645E-22
  51846.871    5.0892E-22
  51846.934    5.4996E-22
  51846.996    5.8246E-22
  51847.059    5.6600E-22
  51847.121    5.4033E-22
  51847.184    5.1958E-22
  51847.246    5.1395E-22
  51847.309    4.9584E-22
  51847.371    4.5543E-22
  51847.434    4.3338E-22
  51847.496    4.2946E-22
  51847.559    4.4083E-22
  51847.621    4.3991E-22
  51847.684    4.3687E-22
  51847.746    4.3062E-22
  51847.809    4.0422E-22
  51847.863    3.7402E-22
  51847.926    3.6243E-22
  51847.988    3.6957E-22
  51848.051    3.6914E-22
  51848.113    3.4631E-22
  51848.176    3.3405E-22
  51848.238    3.2182E-22
  51848.301    3.0611E-22
  51848.363    3.0331E-22
  51848.426    3.0566E-22
  51848.488    3.0841E-22
  51848.551    2.9949E-22
  51848.613    2.9725E-22
  51848.676    3.0108E-22
  51848.738    3.0823E-22
  51848.801    3.1114E-22
  51848.863    3.1518E-22
  51848.926    3.2525E-22
  51848.984    2.9981E-22
  51849.047    2.7919E-22
  51849.109    2.7565E-22
  51849.172    2.7215E-22
  51849.234    2.7135E-22
  51849.297    2.6131E-22
  51849.359    2.5412E-22
  51849.422    2.5468E-22
  51849.484    2.5488E-22
  51849.547    2.4327E-22
  51849.609    2.3748E-22
  51849.672    2.5825E-22
  51849.730    2.7806E-22
  51849.793    2.9499E-22
  51849.855    3.0064E-22
  51849.918    2.9734E-22
  51849.980    2.7986E-22
  51850.043    2.6004E-22
  51850.105    2.6292E-22
  51850.168    2.3661E-22
  51850.230    2.2129E-22
  51850.293    2.0823E-22
  51850.355    2.0279E-22
  51850.418    2.2189E-22
  51850.480    2.5238E-22
  51850.543    2.7737E-22
  51850.605    2.8955E-22
  51850.668    2.9089E-22
  51850.730    2.9184E-22
  51850.793    2.9457E-22
  51850.848    2.9321E-22
  51850.910    2.9435E-22
  51850.973    2.9656E-22
  51851.035    3.0529E-22
  51851.098    3.2004E-22
  51851.160    3.1146E-22
  51851.223    3.0908E-22
  51851.285    3.0108E-22
  51851.348    3.0702E-22
  51851.410    3.1965E-22
  51851.473    3.2176E-22
  51851.535    3.1999E-22
  51851.598    3.3322E-22
  51851.660    3.5428E-22
  51851.723    3.6729E-22
  51851.785    3.8171E-22
  51851.848    3.8303E-22
  51851.910    3.6250E-22
  51851.969    3.4680E-22
  51852.031    3.3490E-22
  51852.094    3.3768E-22
  51852.156    3.3385E-22
  51852.219    3.2649E-22
  51852.281    3.3184E-22
  51852.344    3.3201E-22
  51852.406    3.2498E-22
  51852.469    3.3526E-22
  51852.531    3.5147E-22
  51852.594    3.6596E-22
  51852.656    3.5842E-22
  51852.715    3.4910E-22
  51852.777    3.4687E-22
  51852.840    3.7531E-22
  51852.902    4.0393E-22
  51852.965    4.1908E-22
  51853.027    4.3802E-22
  51853.090    4.4854E-22
  51853.152    4.3367E-22
  51853.215    4.0586E-22
  51853.277    4.0059E-22
  51853.340    4.1994E-22
  51853.402    4.3976E-22
  51853.465    4.6352E-22
  51853.527    4.7983E-22
  51853.590    4.8135E-22
  51853.652    4.8327E-22
  51853.715    4.7923E-22
  51853.777    4.6704E-22
  51853.840    4.4006E-22
  51853.895    4.4159E-22
  51853.957    4.5505E-22
  51854.020    4.4229E-22
  51854.082    4.6292E-22
  51854.145    5.0876E-22
  51854.207    5.3476E-22
  51854.270    5.4484E-22
  51854.332    5.5331E-22
  51854.395    5.4800E-22
  51854.457    5.2650E-22
  51854.520    5.2710E-22
  51854.582    5.5483E-22
  51854.645    5.9117E-22
  51854.707    6.4925E-22
  51854.770    7.1360E-22
  51854.832    7.3946E-22
  51854.895    7.5865E-22
  51854.957    7.9211E-22
  51855.016    8.3679E-22
  51855.078    8.6845E-22
  51855.141    8.7282E-22
  51855.203    8.8290E-22
  51855.266    8.9282E-22
  51855.328    8.7627E-22
  51855.391    8.7851E-22
  51855.453    9.2966E-22
  51855.516    9.7734E-22
  51855.578    1.0142E-21
  51855.641    1.0366E-21
  51855.703    1.0449E-21
  51855.766    1.0740E-21
  51855.824    1.1052E-21
  51855.887    1.1206E-21
  51855.949    1.1457E-21
  51856.012    1.1555E-21
  51856.074    1.1594E-21
  51856.137    1.1574E-21
  51856.199    1.1555E-21
  51856.262    1.1694E-21
  51856.324    1.1972E-21
  51856.387    1.2059E-21
  51856.449    1.1880E-21
  51856.512    1.1985E-21
  51856.574    1.2234E-21
  51856.637    1.2281E-21
  51856.699    1.2153E-21
  51856.762    1.2029E-21
  51856.824    1.2115E-21
  51856.887    1.2058E-21
  51856.941    1.1934E-21
  51857.004    1.1942E-21
  51857.066    1.2025E-21
  51857.129    1.2041E-21
  51857.191    1.1899E-21
  51857.254    1.1638E-21
  51857.316    1.1405E-21
  51857.379    1.1120E-21
  51857.441    1.0915E-21
  51857.504    1.0719E-21
  51857.566    1.0588E-21
  51857.629    1.0607E-21
  51857.691    1.0687E-21
  51857.754    1.0704E-21
  51857.816    1.0667E-21
  51857.879    1.0452E-21
  51857.941    1.0231E-21
  51858.004    1.0164E-21
  51858.066    1.0137E-21
  51858.125    1.0065E-21
  51858.188    9.9851E-22
  51858.250    9.7360E-22
  51858.313    9.6610E-22
  51858.375    9.6932E-22
  51858.438    9.7682E-22
  51858.500    9.7813E-22
  51858.563    9.8762E-22
  51858.625    9.8984E-22
  51858.688    9.8249E-22
  51858.750    9.7649E-22
  51858.813    9.5457E-22
  51858.871    9.2057E-22
  51858.934    8.9838E-22
  51858.996    8.9598E-22
  51859.059    8.9242E-22
  51859.121    8.8169E-22
  51859.184    8.5482E-22
  51859.246    8.3137E-22
  51859.309    8.2248E-22
  51859.371    8.1686E-22
  51859.434    8.1522E-22
  51859.496    8.1320E-22
  51859.559    8.0479E-22
  51859.621    7.8743E-22
  51859.684    7.7973E-22
  51859.746    7.8080E-22
  51859.809    7.7737E-22
  51859.871    7.6221E-22
  51859.934    7.5905E-22
  51859.996    7.5545E-22
  51860.051    7.3419E-22
  51860.113    7.1637E-22
  51860.176    7.0248E-22
  51860.238    6.9646E-22
  51860.301    7.0770E-22
  51860.363    7.1005E-22
  51860.426    6.9343E-22
  51860.488    6.5988E-22
  51860.551    6.3952E-22
  51860.613    6.2802E-22
  51860.676    6.2296E-22
  51860.738    6.0327E-22
  51860.801    5.8820E-22
  51860.863    5.7174E-22
  51860.926    5.4737E-22
  51860.988    5.4142E-22
  51861.051    5.4119E-22
  51861.113    5.2921E-22
  51861.176    5.2831E-22
  51861.234    5.3463E-22
  51861.297    5.2047E-22
  51861.359    5.0703E-22
  51861.422    4.9391E-22
  51861.484    4.8551E-22
  51861.547    4.8923E-22
  51861.609    4.8648E-22
  51861.672    4.8390E-22
  51861.734    4.8016E-22
  51861.797    4.7553E-22
  51861.859    4.7055E-22
  51861.922    4.4737E-22
  51861.984    4.3235E-22
  51862.043    4.2760E-22
  51862.105    4.2762E-22
  51862.168    4.4251E-22
  51862.230    4.4498E-22
  51862.293    4.3528E-22
  51862.355    4.2458E-22
  51862.418    4.1248E-22
  51862.480    4.1678E-22
  51862.543    4.0892E-22
  51862.605    4.2018E-22
  51862.668    4.2995E-22
  51862.730    4.3148E-22
  51862.793    4.2471E-22
  51862.855    4.1549E-22
  51862.918    4.0547E-22
  51862.980    4.0195E-22
  51863.043    4.0384E-22
  51863.105    4.2075E-22
  51863.168    4.2899E-22
  51863.223    4.3080E-22
  51863.285    4.1349E-22
  51863.348    4.0679E-22
  51863.410    4.1208E-22
  51863.473    4.1275E-22
  51863.535    4.2525E-22
  51863.598    4.2276E-22
  51863.660    4.1450E-22
  51863.723    4.1390E-22
  51863.785    4.1347E-22
  51863.848    4.1546E-22
  51863.910    4.0865E-22
  51863.973    4.0635E-22
  51864.035    4.1964E-22
  51864.098    4.3580E-22
  51864.160    4.5616E-22
  51864.223    4.8831E-22
  51864.285    5.0269E-22
  51864.348    5.1541E-22
  51864.406    5.1238E-22
  51864.469    5.1139E-22
  51864.531    5.2090E-22
  51864.594    5.0920E-22
  51864.656    5.1485E-22
  51864.719    5.4018E-22
  51864.781    5.5884E-22
  51864.844    5.6652E-22
  51864.906    5.6967E-22
  51864.969    5.6896E-22
  51865.031    5.6768E-22
  51865.094    5.7189E-22
  51865.156    5.7474E-22
  51865.215    5.7635E-22
  51865.277    5.8442E-22
  51865.340    6.0728E-22
  51865.402    6.0618E-22
  51865.465    6.1772E-22
  51865.527    6.1482E-22
  51865.590    6.2112E-22
  51865.652    6.3805E-22
  51865.715    6.6170E-22
  51865.777    6.8425E-22
  51865.840    7.1294E-22
  51865.902    7.3740E-22
  51865.965    7.6344E-22
  51866.027    7.9327E-22
  51866.090    7.9735E-22
  51866.152    8.1014E-22
  51866.215    8.4424E-22
  51866.277    8.6380E-22
  51866.340    8.8324E-22
  51866.395    9.0044E-22
  51866.457    8.9757E-22
  51866.520    9.0532E-22
  51866.582    9.2207E-22
  51866.645    9.5300E-22
  51866.707    9.7750E-22
  51866.770    1.0022E-21
  51866.832    1.0305E-21
  51866.895    1.0684E-21
  51866.957    1.1151E-21
  51867.020    1.1492E-21
  51867.082    1.1638E-21
  51867.145    1.1938E-21
  51867.207    1.2240E-21
  51867.270    1.2509E-21
  51867.332    1.2824E-21
  51867.395    1.3098E-21
  51867.457    1.3352E-21
  51867.520    1.3566E-21
  51867.578    1.3959E-21
  51867.641    1.4323E-21
  51867.703    1.4630E-21
  51867.766    1.5057E-21
  51867.828    1.5530E-21
  51867.891    1.5876E-21
  51867.953    1.6156E-21
  51868.016    1.6283E-21
  51868.078    1.6319E-21
  51868.141    1.6417E-21
  51868.203    1.6656E-21
  51868.266    1.6902E-21
  51868.328    1.7020E-21
  51868.387    1.7298E-21
  51868.449    1.7522E-21
  51868.512    1.7555E-21
  51868.574    1.7629E-21
  51868.637    1.7549E-21
  51868.699    1.7232E-21
  51868.762    1.7038E-21
  51868.824    1.6947E-21
  51868.887    1.6873E-21
  51868.949    1.6692E-21
  51869.012    1.6503E-21
  51869.074    1.6286E-21
  51869.137    1.6065E-21
  51869.199    1.5979E-21
  51869.262    1.5907E-21
  51869.324    1.5763E-21
  51869.387    1.5678E-21
  51869.449    1.5568E-21
  51869.512    1.5435E-21
  51869.574    1.5246E-21
  51869.629    1.5029E-21
  51869.691    1.4853E-21
  51869.754    1.4823E-21
  51869.816    1.4952E-21
  51869.879    1.4906E-21
  51869.941    1.4764E-21
  51870.004    1.4640E-21
  51870.066    1.4637E-21
  51870.129    1.4534E-21
  51870.191    1.4486E-21
  51870.254    1.4461E-21
  51870.316    1.4448E-21
  51870.379    1.4232E-21
  51870.441    1.4052E-21
  51870.504    1.3956E-21
  51870.566    1.3741E-21
  51870.629    1.3521E-21
  51870.691    1.3347E-21
  51870.754    1.3333E-21
  51870.813    1.3345E-21
  51870.875    1.3425E-21
  51870.938    1.3470E-21
  51871.000    1.3295E-21
  51871.063    1.3051E-21
  51871.125    1.2660E-21
  51871.188    1.2505E-21
  51871.250    1.2343E-21
  51871.313    1.2104E-21
  51871.375    1.1890E-21
  51871.438    1.1647E-21
  51871.500    1.1275E-21
  51871.563    1.0851E-21
  51871.625    1.0487E-21
  51871.684    1.0137E-21
  51871.746    9.9564E-22
  51871.809    9.8753E-22
  51871.871    9.8552E-22
  51871.934    9.7856E-22
  51871.996    9.7295E-22
  51872.059    9.6644E-22
  51872.121    9.5049E-22
  51872.184    9.3815E-22
  51872.246    9.2310E-22
  51872.309    9.0140E-22
  51872.371    8.9076E-22
  51872.434    8.9793E-22
  51872.496    8.9712E-22
  51872.559    8.7707E-22
  51872.621    8.5896E-22
  51872.684    8.3773E-22
  51872.746    8.1641E-22
  51872.809    8.0853E-22
  51872.863    8.0731E-22
  51872.926    7.9645E-22
  51872.988    7.6085E-22
  51873.051    7.3979E-22
  51873.113    7.3226E-22
  51873.176    7.3473E-22
  51873.238    6.9903E-22
  51873.301    6.8378E-22
  51873.363    6.5563E-22
  51873.426    6.5306E-22
  51873.488    6.6044E-22
  51873.551    6.7426E-22
  51873.613    6.8853E-22
  51873.676    6.8873E-22
  51873.738    6.8799E-22
  51873.801    6.8557E-22
  51873.863    6.9118E-22
  51873.926    7.1422E-22
  51873.988    7.3961E-22
  51874.051    7.5466E-22
  51874.109    7.5131E-22
  51874.172    7.5370E-22
  51874.234    7.3115E-22
  51874.297    6.9357E-22
  51874.359    6.8224E-22
  51874.422    6.8566E-22
  51874.484    6.9410E-22
  51874.547    7.0262E-22
  51874.609    7.0502E-22
  51874.672    7.2573E-22
  51874.734    7.4234E-22
  51874.797    7.4944E-22
  51874.859    7.3953E-22
  51874.922    7.2392E-22
  51874.980    7.4407E-22
  51875.043    7.7848E-22
  51875.105    7.8857E-22
  51875.168    7.6846E-22
  51875.230    7.4660E-22
  51875.293    7.3675E-22
  51875.355    7.2830E-22
  51875.418    7.3458E-22
  51875.480    7.4615E-22
  51875.543    7.4998E-22
  51875.605    7.6085E-22
  51875.668    8.0499E-22
  51875.730    8.2924E-22
  51875.793    8.6832E-22
  51875.855    8.9184E-22
  51875.918    9.1215E-22
  51875.980    9.3889E-22
  51876.043    9.6538E-22
  51876.105    9.8370E-22
  51876.168    9.9980E-22
  51876.223    1.0052E-21
  51876.285    9.6106E-22
  51876.348    9.9924E-22
  51876.410    1.0191E-21
  51876.473    1.0404E-21
  51876.535    1.0614E-21
  51876.598    1.0987E-21
  51876.660    1.1369E-21
  51876.723    1.1680E-21
  51876.785    1.1936E-21
  51876.848    1.2088E-21
  51876.910    1.2200E-21
  51876.973    1.2336E-21
  51877.035    1.2554E-21
  51877.098    1.2816E-21
  51877.160    1.3087E-21
  51877.223    1.3451E-21
  51877.285    1.3767E-21
  51877.348    1.4329E-21
  51877.410    1.4871E-21
  51877.469    1.5180E-21
  51877.531    1.5463E-21
  51877.594    1.5762E-21
  51877.656    1.6041E-21
  51877.719    1.6338E-21
  51877.781    1.6781E-21
  51877.844    1.7272E-21
  51877.906    1.7875E-21
  51877.969    1.8387E-21
  51878.031    1.8793E-21
  51878.094    1.9107E-21
  51878.156    1.9504E-21
  51878.219    1.9875E-21
  51878.281    2.0257E-21
  51878.340    2.0543E-21
  51878.402    2.0828E-21
  51878.465    2.0982E-21
  51878.527    2.1263E-21
  51878.590    2.1662E-21
  51878.652    2.1918E-21
  51878.715    2.2032E-21
  51878.777    2.2130E-21
  51878.840    2.2231E-21
  51878.902    2.2257E-21
  51878.965    2.2329E-21
  51879.027    2.2348E-21
  51879.090    2.2344E-21
  51879.152    2.2532E-21
  51879.215    2.2676E-21
  51879.277    2.2880E-21
  51879.340    2.2886E-21
  51879.402    2.2687E-21
  51879.465    2.2501E-21
  51879.527    2.2370E-21
  51879.582    2.2172E-21
  51879.645    2.2046E-21
  51879.707    2.1800E-21
  51879.770    2.1536E-21
  51879.832    2.1422E-21
  51879.895    2.1394E-21
  51879.957    2.1491E-21
  51880.020    2.1530E-21
  51880.082    2.1608E-21
  51880.145    2.1413E-21
  51880.207    2.1166E-21
  51880.270    2.1023E-21
  51880.332    2.0939E-21
  51880.395    2.0703E-21
  51880.457    2.0573E-21
  51880.520    2.0520E-21
  51880.582    2.0329E-21
  51880.645    2.0127E-21
  51880.707    1.9973E-21
  51880.770    1.9904E-21
  51880.832    1.9966E-21
  51880.891    1.9996E-21
  51880.953    1.9813E-21
  51881.016    1.9567E-21
  51881.078    1.9144E-21
  51881.141    1.8732E-21
  51881.203    1.8388E-21
  51881.266    1.8100E-21
  51881.328    1.7927E-21
  51881.391    1.7715E-21
  51881.453    1.7520E-21
  51881.516    1.7415E-21
  51881.578    1.7203E-21
  51881.641    1.6937E-21
  51881.699    1.6580E-21
  51881.762    1.6126E-21
  51881.824    1.5698E-21
  51881.887    1.5246E-21
  51881.949    1.4787E-21
  51882.012    1.4579E-21
  51882.074    1.4325E-21
  51882.137    1.4065E-21
  51882.199    1.3923E-21
  51882.262    1.3799E-21
  51882.324    1.3690E-21
  51882.387    1.3658E-21
  51882.449    1.3569E-21
  51882.512    1.3306E-21
  51882.574    1.3084E-21
  51882.637    1.2595E-21
  51882.699    1.2346E-21
  51882.762    1.2118E-21
  51882.824    1.1844E-21
  51882.887    1.1553E-21
  51882.949    1.1365E-21
  51883.004    1.1239E-21
  51883.066    1.1124E-21
  51883.129    1.1139E-21
  51883.191    1.1037E-21
  51883.254    1.0924E-21
  51883.316    1.0899E-21
  51883.379    1.0809E-21
  51883.441    1.0696E-21
  51883.504    1.0439E-21
  51883.566    1.0222E-21
  51883.629    1.0146E-21
  51883.691    1.0135E-21
  51883.754    1.0248E-21
  51883.816    1.0263E-21
  51883.879    1.0397E-21
  51883.941    1.0603E-21
  51884.004    1.0668E-21
  51884.066    1.0670E-21
  51884.129    1.0684E-21
  51884.191    1.0733E-21
  51884.254    1.0755E-21
  51884.313    1.0782E-21
  51884.375    1.0787E-21
  51884.438    1.0880E-21
  51884.500    1.0931E-21
  51884.563    1.0960E-21
  51884.625    1.1108E-21
  51884.688    1.1177E-21
  51884.750    1.1152E-21
  51884.813    1.1109E-21
  51884.875    1.1097E-21
  51884.938    1.1134E-21
  51885.000    1.1250E-21
  51885.063    1.1370E-21
  51885.125    1.1463E-21
  51885.184    1.1660E-21
  51885.246    1.1841E-21
  51885.309    1.2156E-21
  51885.371    1.2501E-21
  51885.434    1.2799E-21
  51885.496    1.3043E-21
  51885.559    1.3180E-21
  51885.621    1.3454E-21
  51885.684    1.3658E-21
  51885.746    1.4155E-21
  51885.809    1.4531E-21
  51885.871    1.4818E-21
  51885.934    1.5043E-21
  51885.996    1.5187E-21
  51886.059    1.5324E-21
  51886.121    1.5523E-21
  51886.184    1.5882E-21
  51886.246    1.6441E-21
  51886.309    1.7043E-21
  51886.371    1.7341E-21
  51886.434    1.7569E-21
  51886.488    1.7845E-21
  51886.551    1.7998E-21
  51886.613    1.8250E-21
  51886.676    1.8679E-21
  51886.738    1.9222E-21
  51886.801    1.9827E-21
  51886.863    2.0507E-21
  51886.926    2.1257E-21
  51886.988    2.1770E-21
  51887.051    2.2200E-21
  51887.113    2.2646E-21
  51887.176    2.3081E-21
  51887.238    2.3630E-21
  51887.301    2.4196E-21
  51887.363    2.4608E-21
  51887.426    2.4964E-21
  51887.488    2.5123E-21
  51887.551    2.5238E-21
  51887.613    2.5445E-21
  51887.676    2.5757E-21
  51887.738    2.6163E-21
  51887.797    2.6623E-21
  51887.859    2.7169E-21
  51887.922    2.7813E-21
  51887.984    2.8315E-21
  51888.047    2.8556E-21
  51888.109    2.8648E-21
  51888.172    2.8586E-21
  51888.234    2.8657E-21
  51888.297    2.8711E-21
  51888.359    2.8721E-21
  51888.422    2.8823E-21
  51888.484    2.8669E-21
  51888.547    2.8433E-21
  51888.609    2.8158E-21
  51888.668    2.7780E-21
  51888.730    2.7582E-21
  51888.793    2.7650E-21
  51888.855    2.7764E-21
  51888.918    2.7913E-21
  51888.980    2.7928E-21
  51889.043    2.7835E-21
  51889.105    2.7762E-21
  51889.168    2.7640E-21
  51889.230    2.7399E-21
  51889.293    2.7070E-21
  51889.355    2.6769E-21
  51889.418    2.6593E-21
  51889.480    2.6476E-21
  51889.543    2.6348E-21
  51889.605    2.6161E-21
  51889.668    2.5918E-21
  51889.730    2.5733E-21
  51889.793    2.5571E-21
  51889.855    2.5376E-21
  51889.918    2.5278E-21
  51889.980    2.5211E-21
  51890.035    2.4929E-21
  51890.098    2.4563E-21
  51890.160    2.4226E-21
  51890.223    2.3781E-21
  51890.285    2.3377E-21
  51890.348    2.2987E-21
  51890.410    2.2709E-21
  51890.473    2.2508E-21
  51890.535    2.2202E-21
  51890.598    2.1972E-21
  51890.660    2.1732E-21
  51890.723    2.1137E-21
  51890.785    2.0440E-21
  51890.848    1.9946E-21
  51890.910    1.9579E-21
  51890.973    1.9212E-21
  51891.035    1.9147E-21
  51891.098    1.8927E-21
  51891.160    1.8660E-21
  51891.223    1.8564E-21
  51891.285    1.8543E-21
  51891.344    1.8209E-21
  51891.406    1.7681E-21
  51891.469    1.7302E-21
  51891.531    1.6833E-21
  51891.594    1.6481E-21
  51891.656    1.6398E-21
  51891.719    1.6337E-21
  51891.781    1.6156E-21
  51891.844    1.6115E-21
  51891.906    1.6201E-21
  51891.969    1.6062E-21
  51892.031    1.5854E-21
  51892.094    1.5663E-21
  51892.156    1.5516E-21
  51892.219    1.5322E-21
  51892.277    1.5292E-21
  51892.340    1.5339E-21
  51892.402    1.5564E-21
  51892.465    1.5854E-21
  51892.527    1.5834E-21
  51892.590    1.5790E-21
  51892.652    1.5873E-21
  51892.715    1.6036E-21
  51892.777    1.6177E-21
  51892.840    1.6263E-21
  51892.902    1.6390E-21
  51892.965    1.6448E-21
  51893.027    1.6451E-21
  51893.090    1.6445E-21
  51893.152    1.6311E-21
  51893.215    1.6216E-21
  51893.277    1.6245E-21
  51893.340    1.6411E-21
  51893.402    1.6665E-21
  51893.465    1.7037E-21
  51893.527    1.7419E-21
  51893.582    1.7715E-21
  51893.645    1.8080E-21
  51893.707    1.8510E-21
  51893.770    1.9020E-21
  51893.832    1.9408E-21
  51893.895    1.9510E-21
  51893.957    1.9516E-21
  51894.020    1.9617E-21
  51894.082    1.9771E-21
  51894.145    2.0011E-21
  51894.207    2.0435E-21
  51894.270    2.0909E-21
  51894.332    2.1115E-21
  51894.395    2.1415E-21
  51894.457    2.1973E-21
  51894.520    2.2633E-21
  51894.582    2.3233E-21
  51894.645    2.3757E-21
  51894.707    2.4331E-21
  51894.770    2.4823E-21
  51894.832    2.5381E-21
  51894.895    2.5948E-21
  51894.953    2.6496E-21
  51895.016    2.7042E-21
  51895.078    2.7533E-21
  51895.141    2.7992E-21
  51895.203    2.8500E-21
  51895.266    2.9003E-21
  51895.328    2.9627E-21
  51895.391    3.0359E-21
  51895.453    3.1002E-21
  51895.516    3.1477E-21
  51895.578    3.1716E-21
  51895.641    3.1920E-21
  51895.703    3.2165E-21
  51895.766    3.2363E-21
  51895.828    3.2657E-21
  51895.887    3.3072E-21
  51895.949    3.3508E-21
  51896.012    3.3838E-21
  51896.074    3.4158E-21
  51896.137    3.4554E-21
  51896.199    3.4801E-21
  51896.262    3.5217E-21
  51896.324    3.5504E-21
  51896.387    3.5826E-21
  51896.449    3.5848E-21
  51896.512    3.5620E-21
  51896.574    3.5336E-21
  51896.637    3.5235E-21
  51896.699    3.5201E-21
  51896.762    3.5265E-21
  51896.824    3.5083E-21
  51896.887    3.4843E-21
  51896.949    3.4666E-21
  51897.012    3.4397E-21
  51897.074    3.4147E-21
  51897.137    3.3979E-21
  51897.199    3.3857E-21
  51897.254    3.3732E-21
  51897.316    3.3698E-21
  51897.379    3.3571E-21
  51897.441    3.3329E-21
  51897.504    3.2834E-21
  51897.566    3.1933E-21
  51897.629    3.1277E-21
  51897.691    3.0942E-21
  51897.754    3.0608E-21
  51897.816    3.0241E-21
  51897.879    2.9979E-21
  51897.941    2.9779E-21
  51898.004    2.9678E-21
  51898.066    2.9338E-21
  51898.129    2.8751E-21
  51898.191    2.8158E-21
  51898.254    2.7472E-21
  51898.316    2.6803E-21
  51898.379    2.6189E-21
  51898.441    2.5797E-21
  51898.504    2.5423E-21
  51898.566    2.4989E-21
  51898.625    2.4591E-21
  51898.688    2.4131E-21
  51898.750    2.3871E-21
  51898.813    2.3735E-21
  51898.875    2.3536E-21
  51898.938    2.3366E-21
  51899.000    2.3132E-21
  51899.063    2.2774E-21
  51899.125    2.2388E-21
  51899.188    2.2034E-21
  51899.250    2.1567E-21
  51899.313    2.1063E-21
  51899.375    2.0800E-21
  51899.438    2.0682E-21
  51899.500    2.0750E-21
  51899.559    2.0949E-21
  51899.621    2.1168E-21
  51899.684    2.1385E-21
  51899.746    2.1602E-21
  51899.809    2.1770E-21
  51899.871    2.1685E-21
  51899.934    2.1744E-21
  51899.996    2.1874E-21
  51900.059    2.2155E-21
  51900.121    2.2131E-21
  51900.184    2.2062E-21
  51900.246    2.2000E-21
  51900.309    2.2270E-21
  51900.371    2.2422E-21
  51900.434    2.2534E-21
  51900.496    2.2669E-21
  51900.559    2.2938E-21
  51900.621    2.3293E-21
  51900.684    2.3695E-21
  51900.746    2.4037E-21
  51900.809    2.4409E-21
  51900.871    2.4806E-21
  51900.934    2.5406E-21
  51900.988    2.6032E-21
  51901.051    2.6584E-21
  51901.113    2.7094E-21
  51901.176    2.7788E-21
  51901.238    2.8380E-21
  51901.301    2.8973E-21
  51901.363    2.9502E-21
  51901.426    2.9889E-21
  51901.488    3.0230E-21
  51901.551    3.0699E-21
  51901.613    3.1245E-21
  51901.676    3.2053E-21
  51901.738    3.2866E-21
  51901.801    3.3586E-21
  51901.863    3.4341E-21
  51901.926    3.4809E-21
  51901.988    3.4968E-21
  51902.051    3.5250E-21
  51902.113    3.5714E-21
  51902.176    3.6292E-21
  51902.238    3.6959E-21
  51902.301    3.7461E-21
  51902.363    3.7832E-21
  51902.422    3.8348E-21
  51902.484    3.8644E-21
  51902.547    3.8800E-21
  51902.609    3.9262E-21
  51902.672    3.9947E-21
  51902.734    4.0641E-21
  51902.797    4.0957E-21
  51902.859    4.1100E-21
  51902.922    4.1141E-21
  51902.984    4.1327E-21
  51903.047    4.1461E-21
  51903.109    4.1434E-21
  51903.172    4.1452E-21
  51903.234    4.1553E-21
  51903.297    4.1564E-21
  51903.355    4.1304E-21
  51903.418    4.0865E-21
  51903.480    4.0590E-21
  51903.543    4.0298E-21
  51903.605    3.9920E-21
  51903.668    3.9741E-21
  51903.730    3.9633E-21
  51903.793    3.9649E-21
  51903.855    3.9522E-21
  51903.918    3.9053E-21
  51903.980    3.8696E-21
  51904.043    3.8187E-21
  51904.105    3.7623E-21
  51904.168    3.7219E-21
  51904.230    3.6987E-21
  51904.293    3.6811E-21
  51904.355    3.6626E-21
  51904.418    3.6185E-21
  51904.480    3.5403E-21
  51904.543    3.4724E-21
  51904.605    3.4461E-21
  51904.668    3.4003E-21
  51904.730    3.3311E-21
  51904.785    3.2651E-21
  51904.848    3.2017E-21
  51904.910    3.1652E-21
  51904.973    3.1284E-21
  51905.035    3.0926E-21
  51905.098    3.0738E-21
  51905.160    3.0604E-21
  51905.223    3.0499E-21
  51905.285    3.0510E-21
  51905.348    3.0351E-21
  51905.410    3.0142E-21
  51905.473    3.0032E-21
  51905.535    3.0057E-21
  51905.598    2.9985E-21
  51905.660    3.0026E-21
  51905.723    3.0077E-21
  51905.785    3.0011E-21
  51905.848    3.0080E-21
  51905.910    3.0108E-21
  51905.973    3.0138E-21
  51906.035    2.9985E-21
  51906.098    2.9985E-21
  51906.160    3.0118E-21
  51906.219    3.0205E-21
  51906.281    3.0443E-21
  51906.344    3.0736E-21
  51906.406    3.1043E-21
  51906.469    3.1303E-21
  51906.531    3.1721E-21
  51906.594    3.2171E-21
  51906.656    3.2646E-21
  51906.719    3.2915E-21
  51906.781    3.3060E-21
  51906.844    3.3360E-21
  51906.906    3.3799E-21
  51906.969    3.4350E-21
  51907.031    3.4850E-21
  51907.094    3.5244E-21
  51907.152    3.5602E-21
  51907.215    3.6073E-21
  51907.277    3.6635E-21
  51907.340    3.7224E-21
  51907.402    3.7996E-21
  51907.465    3.8780E-21
  51907.527    3.9145E-21
  51907.590    3.9335E-21
  51907.652    3.9421E-21
  51907.715    3.9672E-21
  51907.777    4.0229E-21
  51907.840    4.0590E-21
  51907.902    4.0955E-21
  51907.965    4.1327E-21
  51908.027    4.1537E-21
  51908.090    4.2024E-21
  51908.152    4.2654E-21
  51908.215    4.3237E-21
  51908.277    4.3615E-21
  51908.340    4.3611E-21
  51908.402    4.3580E-21
  51908.465    4.3632E-21
  51908.527    4.3537E-21
  51908.590    4.3598E-21
  51908.645    4.3709E-21
  51908.707    4.3658E-21
  51908.770    4.3696E-21
  51908.832    4.3757E-21
  51908.895    4.3743E-21
  51908.957    4.3508E-21
  51909.020    4.3154E-21
  51909.082    4.2828E-21
  51909.145    4.2635E-21
  51909.207    4.2294E-21
  51909.270    4.2041E-21
  51909.332    4.1852E-21
  51909.395    4.1714E-21
  51909.457    4.1300E-21
  51909.520    4.0843E-21
  51909.582    4.0563E-21
  51909.645    4.0518E-21
  51909.707    4.0408E-21
  51909.770    3.9889E-21
  51909.832    3.9291E-21
  51909.895    3.8782E-21
  51909.957    3.8485E-21
  51910.020    3.8489E-21
  51910.078    3.8277E-21
  51910.141    3.7892E-21
  51910.203    3.7587E-21
  51910.266    3.7598E-21
  51910.328    3.7763E-21
  51910.391    3.7712E-21
  51910.453    3.7484E-21
  51910.516    3.7336E-21
  51910.578    3.7318E-21
  51910.641    3.7277E-21
  51910.703    3.7092E-21
  51910.766    3.7114E-21
  51910.828    3.7264E-21
  51910.891    3.7510E-21
  51910.953    3.7804E-21
  51911.016    3.8050E-21
  51911.074    3.8184E-21
  51911.137    3.8570E-21
  51911.199    3.9076E-21
  51911.262    3.9519E-21
  51911.324    3.9983E-21
  51911.387    4.0222E-21
  51911.449    4.0459E-21
  51911.512    4.0771E-21
  51911.574    4.1044E-21
  51911.637    4.1542E-21
  51911.699    4.1983E-21
  51911.762    4.2460E-21
  51911.824    4.3024E-21
  51911.887    4.3561E-21
  51911.949    4.3958E-21
  51912.012    4.4034E-21
  51912.074    4.4202E-21
  51912.137    4.4518E-21
  51912.199    4.4845E-21
  51912.262    4.5143E-21
  51912.324    4.5382E-21
  51912.387    4.5638E-21
  51912.449    4.5829E-21
  51912.512    4.6032E-21
  51912.566    4.6132E-21
  51912.629    4.6339E-21
  51912.691    4.6482E-21
  51912.754    4.6377E-21
  51912.816    4.6222E-21
  51912.879    4.5920E-21
  51912.941    4.5728E-21
  51913.004    4.5962E-21
  51913.066    4.6251E-21
  51913.129    4.6361E-21
  51913.191    4.6317E-21
  51913.254    4.6151E-21
  51913.316    4.5857E-21
  51913.379    4.5971E-21
  51913.441    4.6281E-21
  51913.504    4.6455E-21
  51913.566    4.6350E-21
  51913.629    4.6655E-21
  51913.691    4.6865E-21
  51913.754    4.6874E-21
  51913.816    4.6618E-21
  51913.879    4.6373E-21
  51913.941    4.6211E-21
  51914.004    4.6303E-21
  51914.063    4.6356E-21
  51914.125    4.6444E-21
  51914.188    4.6691E-21
  51914.250    4.6943E-21
  51914.313    4.7192E-21
  51914.375    4.7358E-21
  51914.438    4.7241E-21
  51914.500    4.7190E-21
  51914.563    4.6898E-21
  51914.625    4.6616E-21
  51914.688    4.6666E-21
  51914.750    4.6878E-21
  51914.813    4.6825E-21
  51914.875    4.6881E-21
  51914.938    4.7132E-21
  51915.000    4.7018E-21
  51915.059    4.6986E-21
  51915.121    4.7006E-21
  51915.184    4.6859E-21
  51915.246    4.6403E-21
  51915.309    4.5922E-21
  51915.371    4.5111E-21
  51915.434    4.4494E-21
  51915.496    4.4173E-21
  51915.559    4.3909E-21
  51915.621    4.3570E-21
  51915.684    4.3161E-21
  51915.746    4.2805E-21
  51915.809    4.2370E-21
  51915.871    4.1768E-21
  51915.934    4.1164E-21
  51915.996    4.0493E-21
  51916.059    3.9730E-21
  51916.121    3.8892E-21
  51916.184    3.7784E-21
  51916.246    3.6675E-21
  51916.309    3.5719E-21
  51916.371    3.4962E-21
  51916.434    3.4287E-21
  51916.496    3.3717E-21
  51916.559    3.3331E-21
  51916.613    3.2726E-21
  51916.676    3.1834E-21
  51916.738    3.0803E-21
  51916.801    2.9979E-21
  51916.863    2.9235E-21
  51916.926    2.8536E-21
  51916.988    2.7822E-21
  51917.051    2.7177E-21
  51917.113    2.6612E-21
  51917.176    2.6019E-21
  51917.238    2.5509E-21
  51917.301    2.5004E-21
  51917.363    2.4523E-21
  51917.426    2.4041E-21
  51917.488    2.3347E-21
  51917.551    2.2799E-21
  51917.613    2.2366E-21
  51917.676    2.1564E-21
  51917.738    2.0748E-21
  51917.801    2.0191E-21
  51917.863    1.9758E-21
  51917.926    1.9331E-21
  51917.988    1.8889E-21
  51918.051    1.8526E-21
  51918.109    1.8289E-21
  51918.172    1.7927E-21
  51918.234    1.7479E-21
  51918.297    1.6818E-21
  51918.359    1.6344E-21
  51918.422    1.6098E-21
  51918.484    1.5974E-21
  51918.547    1.5870E-21
  51918.609    1.5773E-21
  51918.672    1.5582E-21
  51918.734    1.5373E-21
  51918.797    1.5081E-21
  51918.859    1.4953E-21
  51918.922    1.4728E-21
  51918.984    1.4356E-21
  51919.047    1.4137E-21
  51919.109    1.3959E-21
  51919.168    1.3777E-21
  51919.230    1.3129E-21
  51919.293    1.3094E-21
  51919.355    1.2918E-21
  51919.418    1.2682E-21
  51919.480    1.2691E-21
  51919.543    1.2821E-21
  51919.605    1.2625E-21
  51919.668    1.2461E-21
  51919.730    1.2274E-21
  51919.793    1.1851E-21
  51919.855    1.1404E-21
  51919.918    1.1190E-21
  51919.980    1.1082E-21
  51920.043    1.1066E-21
  51920.105    1.0969E-21
  51920.168    1.0654E-21
  51920.230    1.0257E-21
  51920.293    9.9861E-22
  51920.355    9.7508E-22
  51920.418    9.5554E-22
  51920.480    9.3859E-22
  51920.543    9.1633E-22
  51920.605    9.2116E-22
  51920.668    9.0804E-22
  51920.723    8.5976E-22
  51920.785    8.0152E-22
  51920.848    7.6385E-22
  51920.910    7.3486E-22
  51920.973    7.2398E-22
  51921.035    7.2875E-22
  51921.098    7.3215E-22
  51921.160    7.0798E-22
  51921.223    6.5099E-22
  51921.285    6.0229E-22
  51921.348    5.8569E-22
  51921.410    5.6919E-22
  51921.473    5.7609E-22
  51921.535    5.7910E-22
  51921.598    5.6141E-22
  51921.660    5.4534E-22
  51921.723    5.4622E-22
  51921.785    5.2996E-22
  51921.848    5.2791E-22
  51921.910    5.3921E-22
  51921.973    5.5459E-22
  51922.035    5.2283E-22
  51922.098    4.9134E-22
  51922.160    4.6890E-22
  51922.223    4.4286E-22
  51922.281    4.2853E-22
  51922.344    3.9640E-22
  51922.406    3.8083E-22
  51922.469    3.8094E-22
  51922.531    3.6653E-22
  51922.594    3.7026E-22
  51922.656    3.7609E-22
  51922.719    3.7716E-22
  51922.781    3.7813E-22
  51922.844    3.9560E-22
  51922.906    4.0422E-22
  51922.969    3.9727E-22
  51923.031    4.0158E-22
  51923.094    3.9494E-22
  51923.156    3.8727E-22
  51923.219    3.8738E-22
  51923.281    3.7804E-22
  51923.340    3.4604E-22
  51923.402    3.1494E-22
  51923.465    3.0475E-22
  51923.527    2.9758E-22
  51923.590    2.8092E-22
  51923.652    2.5941E-22
  51923.715    2.4670E-22
  51923.777    2.5840E-22
  51923.840    2.6897E-22
  51923.902    2.6826E-22
  51923.965    2.6602E-22
  51924.027    2.5934E-22
  51924.090    2.5369E-22
  51924.152    2.6079E-22
  51924.215    2.6611E-22
  51924.277    2.1283E-22
  51924.340    2.0399E-22
  51924.402    1.8678E-22
  51924.465    1.6743E-22
  51924.527    1.5481E-22
  51924.590    1.6680E-22
  51924.652    1.8585E-22
  51924.715    1.6329E-22
  51924.777    1.6846E-22
  51924.840    1.8523E-22
  51924.895    2.0050E-22
  51924.957    2.0703E-22
  51925.020    2.1779E-22
  51925.082    2.2136E-22
  51925.145    2.2068E-22
  51925.207    2.1031E-22
  51925.270    1.6185E-22
  51925.332    1.8331E-22
  51925.395    1.7573E-22
  51925.457    1.7453E-22
  51925.520    1.8589E-22
  51925.582    1.8575E-22
  51925.645    1.8280E-22
  51925.707    1.7684E-22
  51925.770    1.4162E-22
  51925.832    1.3009E-22
  51925.895    1.2491E-22
  51925.957    1.4078E-22
  51926.020    1.6911E-22
  51926.082    1.8225E-22
  51926.145    1.8195E-22
  51926.207    1.9676E-22
  51926.270    1.4154E-22
  51926.332    1.4219E-22
  51926.395    1.5732E-22
  51926.457    1.4462E-22
  51926.516    1.4708E-22
  51926.578    1.5200E-22
  51926.641    1.4462E-22
  51926.703    1.4708E-22
  51926.766    1.4462E-22
  51926.828    1.5200E-22
  51926.891    1.3969E-22
  51926.953    1.2862E-22
  51927.016    1.2738E-22
  51927.078    1.3477E-22
  51927.141    1.3231E-22
  51927.203    1.3477E-22
  51927.266    1.2738E-22
  51927.328    1.3969E-22
  51927.391    1.3477E-22
  51927.453    1.4462E-22
  51927.516    1.3969E-22
  51927.574    1.4708E-22
  51927.637    1.5938E-22
  51927.699    1.5200E-22
  51927.762    1.5446E-22
  51927.824    1.4708E-22
  51927.887    1.4462E-22
  51927.949    1.3477E-22
  51928.012    1.3477E-22
  51928.074    1.3969E-22
  51928.137    1.4462E-22
  51928.199    1.4708E-22
  51928.262    1.4462E-22
  51928.324    1.3231E-22
  51928.387    1.3477E-22
  51928.449    1.2738E-22
  51928.512    1.3231E-22
  51928.574    1.2738E-22
  51928.637    1.2492E-22
  51928.699    1.3231E-22
  51928.762    1.3231E-22
  51928.824    1.2738E-22
  51928.887    1.2000E-22
  51928.949    1.1262E-22
  51929.012    1.0523E-22
  51929.074    1.1508E-22
  51929.137    1.1508E-22
  51929.191    1.0769E-22
  51929.254    1.0031E-22
  51929.316    1.0769E-22
  51929.379    1.1262E-22
  51929.441    1.2000E-22
  51929.504    1.1262E-22
  51929.566    1.0769E-22
  51929.629    1.1508E-22
  51929.691    1.1508E-22
  51929.754    1.0769E-22
  51929.816    1.0031E-22
  51929.879    9.5385E-23
  51929.941    1.0031E-22
  51930.004    1.1262E-22
  51930.066    1.0523E-22
  51930.129    1.0031E-22
  51930.191    1.0769E-22
  51930.254    1.1262E-22
  51930.316    1.1262E-22
  51930.379    1.0031E-22
  51930.441    1.0523E-22
  51930.504    1.0031E-22
  51930.566    8.4308E-23
  51930.629    9.2923E-23
  51930.691    9.5385E-23
  51930.754    8.8000E-23
  51930.816    8.5538E-23
  51930.875    9.2923E-23
  51930.938    1.0031E-22
  51931.000    8.8000E-23
  51931.063    8.0615E-23
  51931.125    8.5538E-23
  51931.188    9.5385E-23
  51931.250    8.8000E-23
  51931.313    9.2923E-23
  51931.375    8.5538E-23
  51931.438    9.5385E-23
  51931.500    9.2923E-23
  51931.563    1.0031E-22
  51931.625    9.2923E-23
  51931.688    8.8000E-23
  51931.750    9.2923E-23
  51931.813    1.0523E-22
  51931.875    1.0031E-22
  51931.934    1.0523E-22
  51931.996    1.1262E-22
  51932.059    1.0277E-22
  51932.121    9.7231E-23
  51932.184    9.7231E-23
  51932.246    8.9846E-23
  51932.309    8.8000E-23
  51932.371    9.3538E-23
  51932.434    8.4308E-23
  51932.496    8.8000E-23
  51932.559    8.9846E-23
  51932.621    8.8000E-23
  51932.684    7.8769E-23
  51932.746    7.5077E-23
  51932.809    8.2462E-23
  51932.871    8.4308E-23
  51932.934    8.4308E-23
  51932.996    7.8769E-23
  51933.059    8.2462E-23
  51933.121    7.5077E-23
  51933.184    7.3231E-23
  51933.246    7.8769E-23
  51933.309    8.8000E-23
  51933.371    7.8769E-23
  51933.434    8.2462E-23
  51933.496    7.3231E-23
  51933.559    6.5846E-23
  51933.613    7.5077E-23
  51933.676    7.8769E-23
  51933.738    8.8000E-23
  51933.801    8.4308E-23
  51933.863    8.8000E-23
  51933.926    8.4308E-23
  51933.988    7.8769E-23
  51934.051    7.3231E-23
  51934.113    6.5846E-23
  51934.176    7.3231E-23
  51934.238    7.5077E-23
  51934.301    8.2462E-23
  51934.363    7.8769E-23
  51934.426    8.8000E-23
  51934.488    8.2462E-23
  51934.551    7.8769E-23
  51934.613    6.4000E-23
  51934.676    6.9538E-23
  51934.738    6.5846E-23
  51934.801    6.4000E-23
  51934.863    7.3231E-23
  51934.926    6.9538E-23
  51934.988    7.3231E-23
  51935.051    8.2462E-23
  51935.113    8.4308E-23
  51935.176    1.8432E-22
  51935.238    7.8769E-23
  51935.297    7.3231E-23
  51935.359    7.8769E-23
  51935.422    7.3231E-23
  51935.484    7.5077E-23
  51935.547    7.3231E-23
  51935.609    6.5846E-23
  51935.672    6.9538E-23
  51935.734    6.5846E-23
  51935.797    6.0308E-23
  51935.859    6.9538E-23
  51935.922    7.5077E-23
  51935.984    7.3231E-23
  51936.047    7.3231E-23
  51936.109    6.4000E-23
  51936.172    5.8462E-23
  51936.234    6.5846E-23
  51936.297    6.9538E-23
  51936.359    7.3231E-23
  51936.418    7.8769E-23
  51936.480    8.2462E-23
  51936.543    7.5077E-23
  51936.605    6.9538E-23
  51936.668    6.5846E-23
  51936.730    7.5077E-23
  51936.793    7.3231E-23
  51936.855    7.5077E-23
  51936.918    7.5077E-23
  51936.980    6.9538E-23
  51937.043    6.9538E-23
  51937.105    6.0308E-23
  51937.168    6.4000E-23
  51937.230    5.8462E-23
  51937.293    6.0308E-23
  51937.355    6.5846E-23
  51937.418    6.0308E-23
  51937.480    6.4000E-23
  51937.543    6.0308E-23
  51937.605    5.1077E-23
  51937.668    5.4769E-23
  51937.730    4.9231E-23
  51937.793    5.1077E-23
  51937.855    6.0308E-23
  51937.918    6.4000E-23
  51937.980    6.9538E-23
  51938.043    6.5846E-23
  51938.105    6.4000E-23
  51938.160    5.8462E-23
  51938.223    6.4000E-23
  51938.285    6.5846E-23
  51938.348    6.0308E-23
  51938.410    5.1077E-23
  51938.473    5.4769E-23
  51938.535    5.1077E-23
  51938.598    5.1077E-23
  51938.660    4.3692E-23
  51938.723    4.9231E-23
  51938.785    5.1077E-23
  51938.848    4.9231E-23
  51938.910    5.8462E-23
  51938.973    5.4769E-23
  51939.035    6.0308E-23
  51939.098    6.4000E-23
  51939.160    6.5846E-23
  51939.223    6.4000E-23
  51939.285    5.1077E-23
  51939.348    4.9231E-23
  51939.410    4.3692E-23
  51939.473    4.9231E-23
  51939.535    5.8462E-23
  51939.598    6.0308E-23
  51939.660    5.8462E-23
  51939.723    5.1077E-23
  51939.785    4.9231E-23
  51939.844    5.8462E-23
  51939.906    5.4769E-23
  51939.969    6.0308E-23
  51940.031    6.4000E-23
  51940.094    5.8462E-23
  51940.156    5.8462E-23
  51940.219    6.4000E-23
  51940.281    6.5846E-23
  51940.344    6.4000E-23
  51940.406    5.8462E-23
  51940.469    5.1077E-23
  51940.531    5.4769E-23
  51940.594    4.9231E-23
  51940.656    4.3692E-23
  51940.719    4.0000E-23
  51940.781    4.0000E-23
  51940.844    4.5538E-23
  51940.906    4.9231E-23
  51940.969    4.5538E-23
  51941.027    4.3692E-23
  51941.090    3.6308E-23
  51941.152    3.4462E-23
  51941.215    3.0769E-23
  51941.277    3.4462E-23
  51941.340    4.3692E-23
  51941.402    4.0000E-23
  51941.465    4.5538E-23
  51941.527    4.9231E-23
  51941.590    4.5538E-23
  51941.652    4.0000E-23
  51941.715    4.3692E-23
  51941.777    4.0000E-23
  51941.840    4.5538E-23
  51941.902    4.3692E-23
  51941.965    3.6308E-23
  51942.027    3.4462E-23
  51942.090    4.3692E-23
  51942.152    4.9231E-23
  51942.215    5.1077E-23
  51942.277    4.5538E-23
  51942.340    4.0000E-23
  51942.402    4.3692E-23
  51942.465    4.9231E-23
  51942.527    5.1077E-23
  51942.590    4.5538E-23
  51942.652    3.6308E-23
  51942.715    4.0000E-23
  51942.770    4.3692E-23
  51942.832    3.6308E-23
  51942.895    3.4462E-23
  51942.957    4.3692E-23
  51943.020    4.0000E-23
  51943.082    4.5538E-23
  51943.145    4.3692E-23
  51943.207    3.3407E-23
  51943.270    2.9378E-23
  51943.332    1.6211E-23
  51943.395    2.8923E-23
  51943.457    2.1343E-23
  51943.520    4.5325E-23
  51943.582    3.3119E-23
  51943.645    4.5538E-23
  51943.707    4.9231E-23
  51943.770    4.5538E-23
  51943.832    4.0000E-23
  51943.895    4.3692E-23
  51943.957    4.5538E-23
  51944.020    4.0000E-23
  51944.082    3.0769E-23
  51944.145    3.6308E-23
  51944.207    4.0000E-23
  51944.270    3.0769E-23
  51944.332    2.5231E-23
  51944.395    2.1538E-23
  51944.457    2.5231E-23
  51944.520    3.0769E-23
  51944.578    2.8923E-23
  51944.641    2.1538E-23
  51944.703    1.8763E-23
  51944.766    2.5231E-23
  51944.828    2.8923E-23
  51944.891    2.5231E-23
  51944.953    3.0769E-23
  51945.016    3.6308E-23
  51945.078    3.4462E-23
  51945.141    2.8923E-23
  51945.203    2.5231E-23
  51945.266    3.0769E-23
  51945.328    3.4462E-23
  51945.391    4.3692E-23
  51945.453    3.4462E-23
  51945.516    2.8923E-23
  51945.578    2.1538E-23
  51945.641    2.5231E-23
  51945.703    3.0769E-23
  51945.762    2.8923E-23
  51945.824    1.5277E-23
  51945.887    2.0003E-23
  51945.949    2.4147E-23
  51946.012    1.9865E-23
  51946.074    2.4785E-23
  51946.137    1.9774E-23
  51946.199    1.2622E-23
  51946.262    1.0373E-23
  51946.324    1.6996E-23
  51946.387    1.9268E-23
  51946.449    2.0287E-23
  51946.512    2.5268E-23
  51946.574   -6.0450E-24
  51946.637   -2.2508E-23
  51946.699   -1.7322E-23
  51946.762   -4.8607E-24
  51946.824    3.4051E-24
  51946.887    2.1881E-23
  51946.949    2.4251E-23
  51947.012    1.1941E-23
  51947.074    2.5233E-23
  51947.137    3.3888E-23
  51947.199    3.3255E-23
  51947.262    2.6426E-23
  51947.324    3.1782E-23
  51947.387    2.8923E-23
  51947.449    3.0769E-23
  51947.512    2.5231E-23
  51947.566    1.9692E-23
  51947.629    2.1538E-23
  51947.691    2.8923E-23
  51947.754    2.5231E-23
  51947.816    1.8513E-23
  51947.879    5.0391E-24
  51947.941    7.8418E-24
  51948.004    1.3955E-23
  51948.066    2.6204E-23
  51948.129    1.3008E-23
  51948.191    1.2496E-24
  51948.254    1.1349E-23
  51948.316    3.8470E-23
  51948.379    2.5231E-23
  51948.441    2.5231E-23
  51948.504    1.9692E-23
  51948.566    1.6000E-23
  51948.629    2.1538E-23
  51948.691    2.5231E-23
  51948.754    1.9692E-23
  51948.816    1.6000E-23
  51948.879    1.9692E-23
  51948.941    2.8923E-23
  51949.004    2.1538E-23
  51949.066    1.9692E-23
  51949.129    1.6000E-23
  51949.191    6.7692E-24
  51949.254    1.0462E-23
  51949.316    1.6000E-23
  51949.379    1.4154E-23
  51949.438    1.9692E-23
  51949.500    2.5231E-23
  51949.563    2.1538E-23
  51949.625    2.8923E-23
  51949.688    3.4569E-23
  51949.750    2.8697E-23
  51949.813    2.9866E-23
  51949.875    4.1261E-23
  51949.938    2.5231E-23
