# 16O2;(4,0);79K;51741-2016 cm-1;4430 pts
  51741.070   -0.8142E-23
  51741.132   -0.1399E-22
  51741.194   -0.2198E-22
  51741.256   -0.1764E-22
  51741.318   -0.1110E-22
  51741.380   -0.3050E-23
  51741.441    0.1364E-23
  51741.503    0.2834E-23
  51741.565    0.7274E-23
  51741.627    0.1099E-22
  51741.689    0.1172E-22
  51741.751    0.1545E-22
  51741.812    0.1694E-22
  51741.874    0.1768E-22
  51741.936    0.2294E-22
  51741.998    0.1617E-22
  51742.060    0.7946E-23
  51742.122    0.1267E-23
  51742.183   -0.5370E-23
  51742.245   -0.3909E-23
  51742.307    0.5019E-24
  51742.369    0.9390E-23
  51742.431    0.1236E-22
  51742.493    0.1086E-22
  51742.555    0.9363E-23
  51742.616    0.4155E-23
  51742.678    0.3406E-23
  51742.740    0.9337E-23
  51742.802    0.1082E-22
  51742.864    0.1081E-22
  51742.926    0.7079E-23
  51742.987    0.5585E-23
  51743.049    0.8548E-23
  51743.111    0.1601E-22
  51743.173    0.1825E-22
  51743.235    0.1150E-22
  51743.297   -0.6263E-23
  51743.358   -0.1794E-22
  51743.420   -0.1505E-22
  51743.482   -0.1287E-22
  51743.544   -0.7031E-23
  51743.606    0.3159E-24
  51743.668    0.2524E-23
  51743.730    0.2515E-23
  51743.791    0.2893E-24
  51743.853    0.6946E-23
  51743.915    0.9168E-23
  51743.977    0.1438E-22
  51744.039    0.1438E-22
  51744.101    0.6911E-23
  51744.162    0.2453E-23
  51744.224   -0.4927E-23
  51744.286   -0.1226E-22
  51744.348   -0.1372E-22
  51744.410   -0.1373E-22
  51744.472   -0.1082E-22
  51744.534   -0.1521E-22
  51744.595   -0.2246E-22
  51744.657   -0.2536E-22
  51744.719   -0.2103E-22
  51744.781   -0.1669E-22
  51744.843   -0.1307E-22
  51744.905   -0.9423E-23
  51744.966   -0.9432E-23
  51745.028   -0.1163E-22
  51745.090   -0.1529E-22
  51745.152   -0.1384E-22
  51745.214   -0.1166E-22
  51745.276   -0.9476E-23
  51745.338   -0.9485E-23
  51745.399   -0.8030E-23
  51745.461   -0.5105E-23
  51745.523   -0.1434E-23
  51745.585    0.3730E-23
  51745.647    0.7621E-24
  51745.709   -0.2934E-23
  51745.771   -0.2206E-23
  51745.832   -0.2953E-26
  51745.894    0.2945E-23
  51745.956    0.2196E-23
  51746.018   -0.2242E-23
  51746.080   -0.8127E-23
  51746.142   -0.1325E-22
  51746.203   -0.1762E-22
  51746.265   -0.1327E-22
  51746.327   -0.5963E-23
  51746.389   -0.8207E-24
  51746.451   -0.3776E-23
  51746.513   -0.1476E-22
  51746.575   -0.2130E-22
  51746.636   -0.1696E-22
  51746.698   -0.8650E-24
  51746.760    0.1100E-22
  51746.822    0.9497E-23
  51746.884    0.5027E-23
  51746.946    0.5761E-24
  51747.008   -0.5326E-23
  51747.069   -0.9733E-23
  51747.131   -0.1266E-22
  51747.193   -0.8287E-23
  51747.255   -0.7563E-23
  51747.317   -0.6839E-23
  51747.379   -0.3909E-23
  51747.441    0.1984E-23
  51747.502    0.7167E-23
  51747.564    0.8646E-23
  51747.626    0.7893E-23
  51747.688    0.6397E-23
  51747.750    0.1086E-22
  51747.812    0.1458E-22
  51747.873    0.2134E-22
  51747.935    0.2057E-22
  51747.997    0.9329E-23
  51748.059    0.2635E-23
  51748.121   -0.3308E-24
  51748.183   -0.7696E-23
  51748.245   -0.1824E-23
  51748.306    0.2600E-23
  51748.368    0.6299E-23
  51748.430    0.1150E-22
  51748.492    0.1150E-22
  51748.554    0.5530E-23
  51748.616    0.3296E-23
  51748.678    0.9231E-23
  51748.739    0.8477E-23
  51748.801    0.7724E-23
  51748.863    0.1294E-22
  51748.925    0.1442E-22
  51748.987    0.1892E-22
  51749.049    0.1966E-22
  51749.111    0.1290E-22
  51749.172    0.9160E-23
  51749.234    0.6918E-23
  51749.296    0.9784E-24
  51749.358   -0.5080E-24
  51749.420   -0.1992E-23
  51749.482   -0.5258E-24
  51749.544    0.1682E-23
  51749.606    0.1950E-24
  51749.667   -0.3501E-23
  51749.729   -0.1449E-22
  51749.791   -0.1596E-22
  51749.853   -0.1378E-22
  51749.915   -0.9409E-23
  51749.977   -0.2809E-23
  51750.039    0.1612E-23
  51750.100    0.1603E-23
  51750.162    0.1152E-24
  51750.224    0.1064E-24
  51750.286    0.2316E-23
  51750.348    0.3048E-23
  51750.410    0.7978E-25
  51750.472   -0.5822E-23
  51750.533   -0.1315E-22
  51750.595   -0.1170E-22
  51750.657   -0.8783E-23
  51750.719   -0.5123E-23
  51750.781   -0.1450E-23
  51750.843    0.7432E-23
  51750.905    0.8912E-23
  51750.966    0.8158E-23
  51751.028    0.1470E-23
  51751.090   -0.4441E-23
  51751.152   -0.8854E-23
  51751.214   -0.1252E-22
  51751.276   -0.1544E-22
  51751.338   -0.1618E-22
  51751.400   -0.1400E-22
  51751.461   -0.1401E-22
  51751.523   -0.1402E-22
  51751.585   -0.8183E-23
  51751.647   -0.9657E-23
  51751.709   -0.1186E-22
  51751.771   -0.1551E-22
  51751.833   -0.1480E-22
  51751.894   -0.1480E-22
  51751.956   -0.1627E-22
  51752.018   -0.1846E-22
  51752.080   -0.1919E-22
  51752.142   -0.1993E-22
  51752.204   -0.2283E-22
  51752.266   -0.2067E-22
  51752.327   -0.1487E-22
  51752.389   -0.7565E-23
  51752.451   -0.9513E-24
  51752.513    0.5705E-23
  51752.575    0.9418E-23
  51752.637    0.3461E-23
  51752.699   -0.2462E-23
  51752.761   -0.8352E-23
  51752.822   -0.1494E-22
  51752.884   -0.1858E-22
  51752.946   -0.2221E-22
  51753.008   -0.2439E-22
  51753.070   -0.1643E-22
  51753.132   -0.1787E-23
  51753.194    0.5608E-23
  51753.256    0.7830E-23
  51753.317    0.5590E-23
  51753.379   -0.4033E-23
  51753.441   -0.9182E-23
  51753.503   -0.1212E-22
  51753.565   -0.9932E-23
  51753.627   -0.1286E-22
  51753.689   -0.1433E-22
  51753.750   -0.1361E-22
  51753.812   -0.1799E-22
  51753.874   -0.2017E-22
  51753.936   -0.1946E-22
  51753.998   -0.1146E-22
  51754.060   -0.4866E-23
  51754.122   -0.1191E-23
  51754.184   -0.1938E-23
  51754.245   -0.1222E-22
  51754.307   -0.2458E-22
  51754.369   -0.2891E-22
  51754.431   -0.3322E-22
  51754.493   -0.3036E-22
  51754.555   -0.2677E-22
  51754.617   -0.2750E-22
  51754.679   -0.2679E-22
  51754.740   -0.2680E-22
  51754.802   -0.2753E-22
  51754.864   -0.2610E-22
  51754.926   -0.2105E-22
  51754.988   -0.1816E-22
  51755.050   -0.1889E-22
  51755.112   -0.1817E-22
  51755.174   -0.1964E-22
  51755.235   -0.2037E-22
  51755.297   -0.1820E-22
  51755.359   -0.2111E-22
  51755.421   -0.2618E-22
  51755.483   -0.2619E-22
  51755.545   -0.2836E-22
  51755.607   -0.2765E-22
  51755.669   -0.2188E-22
  51755.730   -0.1244E-22
  51755.792   -0.3643E-23
  51755.854   -0.7006E-24
  51755.916    0.1509E-23
  51755.978   -0.2195E-23
  51756.040   -0.1175E-22
  51756.102   -0.1832E-22
  51756.164   -0.2195E-22
  51756.225   -0.2051E-22
  51756.287   -0.2124E-22
  51756.349   -0.1252E-22
  51756.411   -0.2257E-23
  51756.473   -0.5027E-25
  51756.535    0.5872E-23
  51756.597    0.1412E-23
  51756.659   -0.4503E-23
  51756.720   -0.3776E-23
  51756.782   -0.3048E-23
  51756.844   -0.8425E-24
  51756.906   -0.1124E-24
  51756.968   -0.1599E-23
  51757.030    0.2090E-23
  51757.092    0.7280E-23
  51757.154    0.1850E-22
  51757.215    0.2151E-22
  51757.277    0.2074E-22
  51757.339    0.1923E-22
  51757.401    0.1847E-22
  51757.463    0.1770E-22
  51757.525    0.1319E-22
  51757.587    0.1270E-23
  51757.649   -0.9053E-23
  51757.711   -0.1126E-22
  51757.772   -0.1346E-22
  51757.834   -0.9079E-23
  51757.896    0.4852E-24
  51757.958    0.7901E-23
  51758.020    0.8637E-23
  51758.082    0.1087E-22
  51758.144    0.7874E-23
  51758.206    0.4408E-24
  51758.267   -0.1061E-22
  51758.329   -0.1573E-22
  51758.391   -0.9892E-23
  51758.453    0.1145E-23
  51758.515    0.1380E-22
  51758.577    0.2056E-22
  51758.639    0.2357E-22
  51758.701    0.2280E-22
  51758.763    0.2658E-22
  51758.824    0.3266E-22
  51758.886    0.3494E-22
  51758.948    0.2960E-22
  51759.010    0.1823E-22
  51759.072    0.1797E-23
  51759.134   -0.1365E-22
  51759.196   -0.2239E-22
  51759.258   -0.2022E-22
  51759.319   -0.1441E-22
  51759.381   -0.1003E-22
  51759.443   -0.1151E-22
  51759.505   -0.9319E-23
  51759.567   -0.6391E-23
  51759.629   -0.1980E-23
  51759.691    0.9144E-23
  51759.753    0.2190E-22
  51759.815    0.2038E-22
  51759.876    0.1435E-22
  51759.938    0.6128E-23
  51760.000   -0.4982E-23
  51760.062   -0.1379E-22
  51760.124   -0.1526E-22
  51760.186   -0.7949E-23
  51760.248   -0.4281E-23
  51760.310   -0.2816E-23
  51760.372    0.3836E-23
  51760.433    0.5313E-23
  51760.495   -0.3580E-23
  51760.557   -0.1313E-22
  51760.619   -0.1168E-22
  51760.681   -0.5080E-23
  51760.743    0.8170E-24
  51760.805    0.4516E-23
  51760.867    0.5995E-23
  51760.929   -0.2167E-23
  51760.990   -0.1173E-22
  51761.052   -0.1757E-22
  51761.114   -0.1904E-22
  51761.176   -0.1686E-22
  51761.238   -0.1250E-22
  51761.300   -0.1323E-22
  51761.362   -0.1762E-22
  51761.424   -0.1544E-22
  51761.486   -0.5195E-23
  51761.547    0.6641E-23
  51761.609    0.6632E-23
  51761.671   -0.1535E-23
  51761.733   -0.4495E-23
  51761.795   -0.3766E-23
  51761.857   -0.1561E-23
  51761.919    0.6588E-23
  51761.981    0.1630E-22
  51762.043    0.1554E-22
  51762.104    0.5817E-23
  51762.166   -0.1273E-24
  51762.228    0.2086E-23
  51762.290    0.5047E-23
  51762.352   -0.1539E-24
  51762.414   -0.4592E-23
  51762.476   -0.6073E-23
  51762.538   -0.7552E-23
  51762.600   -0.6091E-23
  51762.661   -0.6100E-23
  51762.723   -0.1686E-23
  51762.785    0.4976E-23
  51762.847    0.6455E-23
  51762.909    0.9429E-23
  51762.971    0.1166E-22
  51763.033    0.1165E-22
  51763.095    0.6419E-23
  51763.157   -0.1009E-23
  51763.219   -0.1351E-22
  51763.280   -0.2152E-22
  51763.342   -0.2081E-22
  51763.404   -0.1281E-22
  51763.466   -0.1062E-22
  51763.528   -0.1720E-22
  51763.590   -0.1575E-22
  51763.652   -0.1138E-22
  51763.714   -0.6986E-23
  51763.776   -0.8464E-23
  51763.837   -0.1287E-22
  51763.899   -0.1215E-22
  51763.961   -0.1435E-22
  51764.023   -0.7031E-23
  51764.085    0.5533E-23
  51764.147    0.1374E-22
  51764.209    0.2201E-22
  51764.271    0.1748E-22
  51764.333    0.1222E-22
  51764.395    0.9215E-23
  51764.456    0.7714E-23
  51764.518    0.8451E-23
  51764.580    0.9189E-23
  51764.642    0.1217E-22
  51764.704    0.2043E-22
  51764.766    0.2648E-22
  51764.828    0.2723E-22
  51764.890    0.2798E-22
  51764.952    0.2342E-22
  51765.014    0.1662E-22
  51765.075    0.9865E-23
  51765.137   -0.5535E-24
  51765.199   -0.2779E-23
  51765.261   -0.1311E-23
  51765.323    0.2383E-23
  51765.385    0.6836E-23
  51765.447    0.1131E-22
  51765.509    0.4585E-23
  51765.571   -0.5782E-23
  51765.633   -0.9465E-23
  51765.694   -0.9473E-23
  51765.756   -0.6544E-23
  51765.818   -0.1391E-23
  51765.880    0.3046E-23
  51765.942    0.8247E-23
  51766.004    0.1498E-22
  51766.066    0.2175E-22
  51766.128    0.2250E-22
  51766.190    0.2173E-22
  51766.252    0.2399E-22
  51766.313    0.2474E-22
  51766.375    0.2246E-22
  51766.437    0.2169E-22
  51766.499    0.2093E-22
  51766.561    0.2243E-22
  51766.623    0.2167E-22
  51766.685    0.2545E-22
  51766.747    0.2165E-22
  51766.809    0.9616E-23
  51766.871    0.1420E-23
  51766.933   -0.3028E-23
  51766.994   -0.3775E-23
  51767.056   -0.8289E-24
  51767.118    0.5842E-23
  51767.180    0.1331E-22
  51767.242    0.1856E-22
  51767.304    0.2840E-22
  51767.366    0.3144E-22
  51767.428    0.2762E-22
  51767.490    0.2154E-22
  51767.552    0.8016E-23
  51767.613    0.6516E-23
  51767.675    0.7998E-23
  51767.737    0.9483E-23
  51767.799    0.8727E-23
  51767.861    0.7971E-23
  51767.923    0.2010E-23
  51767.985   -0.2441E-23
  51768.047   -0.8343E-23
  51768.109   -0.1055E-22
  51768.171   -0.9829E-23
  51768.233   -0.1057E-22
  51768.294   -0.7644E-23
  51768.356   -0.5445E-23
  51768.418   -0.4717E-23
  51768.480   -0.2512E-23
  51768.542   -0.3997E-23
  51768.604   -0.4744E-23
  51768.666   -0.1799E-23
  51768.728    0.4118E-24
  51768.790    0.1886E-23
  51768.852    0.4105E-23
  51768.914    0.4840E-23
  51768.975    0.3344E-23
  51769.037    0.4822E-23
  51769.099    0.7794E-23
  51769.161    0.7039E-23
  51769.223    0.1824E-23
  51769.285    0.4043E-23
  51769.347    0.9252E-23
  51769.409    0.9990E-23
  51769.471    0.1899E-22
  51769.533    0.2504E-22
  51769.595    0.2503E-22
  51769.656    0.2199E-22
  51769.718    0.2349E-22
  51769.780    0.1820E-22
  51769.842    0.9181E-23
  51769.904    0.9841E-24
  51769.966    0.2459E-23
  51770.028    0.8407E-23
  51770.090    0.1139E-22
  51770.152    0.8389E-23
  51770.214    0.5398E-23
  51770.276    0.1672E-23
  51770.338    0.1664E-23
  51770.399    0.1209E-22
  51770.461    0.1509E-22
  51770.523    0.1208E-22
  51770.585    0.1432E-22
  51770.647    0.2260E-22
  51770.709    0.2867E-22
  51770.771    0.2714E-22
  51770.833    0.1729E-22
  51770.895    0.1277E-22
  51770.957    0.1126E-22
  51771.019    0.1651E-22
  51771.080    0.2103E-22
  51771.142    0.2178E-22
  51771.204    0.1348E-22
  51771.266    0.3015E-23
  51771.328   -0.4397E-23
  51771.390   -0.1102E-22
  51771.452   -0.1030E-22
  51771.514   -0.6635E-23
  51771.576   -0.5907E-23
  51771.638   -0.6652E-23
  51771.700   -0.1180E-22
  51771.762   -0.1108E-22
  51771.823   -0.6679E-23
  51771.885   -0.3001E-23
  51771.947    0.3661E-23
  51772.009    0.8869E-23
  51772.071    0.1110E-22
  51772.133    0.1035E-22
  51772.195    0.2882E-23
  51772.257   -0.8354E-24
  51772.319   -0.2324E-23
  51772.381   -0.1126E-24
  51772.443    0.2103E-23
  51772.505    0.5069E-23
  51772.567    0.8789E-23
  51772.628    0.7287E-23
  51772.690    0.5042E-23
  51772.752    0.6523E-23
  51772.814    0.4280E-23
  51772.876    0.5574E-24
  51772.938   -0.2413E-23
  51773.000   -0.2015E-24
  51773.062    0.4244E-23
  51773.124    0.6470E-23
  51773.186    0.7953E-23
  51773.248    0.2731E-23
  51773.310    0.1979E-23
  51773.371    0.4944E-23
  51773.433    0.4935E-23
  51773.495    0.8656E-23
  51773.557    0.4917E-23
  51773.619   -0.3988E-23
  51773.681   -0.1062E-22
  51773.743   -0.1063E-22
  51773.805   -0.1357E-22
  51773.867   -0.7708E-23
  51773.929   -0.4033E-23
  51773.991   -0.3303E-23
  51774.053    0.3884E-24
  51774.115    0.7074E-23
  51774.176    0.9306E-23
  51774.238    0.6310E-23
  51774.300    0.2579E-23
  51774.362   -0.6307E-23
  51774.424   -0.1073E-22
  51774.486   -0.1659E-22
  51774.548   -0.1733E-22
  51774.610   -0.1952E-22
  51774.672   -0.1661E-22
  51774.734   -0.7097E-23
  51774.796   -0.4157E-23
  51774.858    0.2728E-24
  51774.920    0.6212E-23
  51774.981    0.3969E-23
  51775.043    0.3216E-23
  51775.105    0.4695E-23
  51775.167    0.3198E-23
  51775.229    0.9611E-24
  51775.291   -0.5306E-24
  51775.353    0.2016E-24
  51775.415    0.3906E-23
  51775.477    0.1062E-22
  51775.539    0.1888E-22
  51775.601    0.2189E-22
  51775.663    0.2037E-22
  51775.725    0.1885E-22
  51775.787    0.1809E-22
  51775.848    0.1431E-22
  51775.910    0.8309E-23
  51775.972   -0.2109E-23
  51776.034   -0.1022E-22
  51776.096   -0.1317E-22
  51776.158   -0.1317E-22
  51776.220   -0.1172E-22
  51776.282   -0.6583E-23
  51776.344   -0.6818E-24
  51776.406    0.7921E-24
  51776.468   -0.8817E-23
  51776.530   -0.2415E-22
  51776.592   -0.2343E-22
  51776.654   -0.1763E-22
  51776.715   -0.9588E-23
  51776.777   -0.3703E-23
  51776.839   -0.7530E-24
  51776.901    0.4437E-23
  51776.963    0.7411E-23
  51777.025    0.5910E-23
  51777.087    0.4410E-23
  51777.149   -0.3018E-23
  51777.211   -0.7453E-23
  51777.273   -0.8933E-23
  51777.335   -0.1407E-22
  51777.397   -0.1262E-22
  51777.459   -0.3801E-23
  51777.521    0.8825E-23
  51777.582    0.1331E-22
  51777.644    0.1631E-22
  51777.706    0.1932E-22
  51777.768    0.1780E-22
  51777.830    0.1855E-22
  51777.892    0.2081E-22
  51777.954    0.1702E-22
  51778.016    0.1551E-22
  51778.078    0.1851E-22
  51778.140    0.1775E-22
  51778.202    0.1022E-22
  51778.264    0.9467E-23
  51778.326    0.1321E-22
  51778.388    0.1245E-22
  51778.450    0.1244E-22
  51778.512    0.1093E-22
  51778.573    0.8674E-23
  51778.635    0.4933E-23
  51778.697    0.7909E-23
  51778.759    0.1164E-22
  51778.821    0.1690E-22
  51778.883    0.2521E-22
  51778.945    0.3130E-22
  51779.007    0.2824E-22
  51779.069    0.2291E-22
  51779.131    0.1987E-22
  51779.193    0.1609E-22
  51779.255    0.1759E-22
  51779.317    0.1758E-22
  51779.379    0.1682E-22
  51779.441    0.1530E-22
  51779.502    0.1304E-22
  51779.564    0.1153E-22
  51779.626    0.1152E-22
  51779.688    0.1451E-22
  51779.750    0.1676E-22
  51779.812    0.1751E-22
  51779.874    0.1977E-22
  51779.936    0.1297E-22
  51779.998    0.7722E-23
  51780.060    0.7713E-23
  51780.122    0.1822E-22
  51780.184    0.2579E-22
  51780.246    0.2426E-22
  51780.308    0.2349E-22
  51780.370    0.2500E-22
  51780.432    0.2120E-22
  51780.493    0.2043E-22
  51780.555    0.2042E-22
  51780.617    0.2193E-22
  51780.679    0.3029E-22
  51780.741    0.3564E-22
  51780.803    0.3640E-22
  51780.865    0.3485E-22
  51780.927    0.3255E-22
  51780.989    0.3101E-22
  51781.051    0.2871E-22
  51781.113    0.3175E-22
  51781.175    0.3865E-22
  51781.237    0.4948E-22
  51781.299    0.5728E-22
  51781.361    0.6041E-22
  51781.423    0.5179E-22
  51781.485    0.5100E-22
  51781.546    0.5021E-22
  51781.608    0.4477E-22
  51781.670    0.4631E-22
  51781.732    0.4785E-22
  51781.794    0.4629E-22
  51781.856    0.5173E-22
  51781.918    0.5094E-22
  51781.980    0.4704E-22
  51782.042    0.4393E-22
  51782.104    0.3929E-22
  51782.166    0.3467E-22
  51782.228    0.3006E-22
  51782.290    0.2548E-22
  51782.352    0.2017E-22
  51782.414    0.1713E-22
  51782.476    0.1864E-22
  51782.538    0.1486E-22
  51782.600    0.1862E-22
  51782.661    0.2924E-22
  51782.723    0.3689E-22
  51782.785    0.3996E-22
  51782.847    0.4150E-22
  51782.909    0.4458E-22
  51782.971    0.4612E-22
  51783.033    0.4844E-22
  51783.095    0.4921E-22
  51783.157    0.4609E-22
  51783.219    0.4531E-22
  51783.281    0.4453E-22
  51783.343    0.4452E-22
  51783.405    0.4606E-22
  51783.467    0.4450E-22
  51783.529    0.4682E-22
  51783.591    0.5538E-22
  51783.653    0.6877E-22
  51783.715    0.7273E-22
  51783.777    0.7113E-22
  51783.838    0.6953E-22
  51783.900    0.6083E-22
  51783.962    0.5220E-22
  51784.024    0.5064E-22
  51784.086    0.5141E-22
  51784.148    0.5062E-22
  51784.210    0.5529E-22
  51784.272    0.5138E-22
  51784.334    0.4593E-22
  51784.396    0.4669E-22
  51784.458    0.4281E-22
  51784.520    0.3740E-22
  51784.582    0.3662E-22
  51784.644    0.3508E-22
  51784.706    0.3047E-22
  51784.768    0.2665E-22
  51784.830    0.1981E-22
  51784.892    0.2056E-22
  51784.954    0.3044E-22
  51785.016    0.3656E-22
  51785.077    0.3809E-22
  51785.139    0.3194E-22
  51785.201    0.2583E-22
  51785.263    0.2734E-22
  51785.325    0.3038E-22
  51785.387    0.2428E-22
  51785.449    0.1972E-22
  51785.511    0.2047E-22
  51785.573    0.2122E-22
  51785.635    0.1969E-22
  51785.697    0.2652E-22
  51785.759    0.2956E-22
  51785.821    0.3261E-22
  51785.883    0.3644E-22
  51785.945    0.3951E-22
  51786.007    0.3873E-22
  51786.069    0.3564E-22
  51786.131    0.2874E-22
  51786.193    0.2037E-22
  51786.255    0.1658E-22
  51786.317    0.1733E-22
  51786.379    0.2414E-22
  51786.440    0.2717E-22
  51786.502    0.3098E-22
  51786.564    0.3557E-22
  51786.626    0.3402E-22
  51786.688    0.3172E-22
  51786.750    0.3708E-22
  51786.812    0.4247E-22
  51786.874    0.4014E-22
  51786.936    0.3552E-22
  51786.998    0.3397E-22
  51787.060    0.3090E-22
  51787.122    0.1721E-22
  51787.184    0.1720E-22
  51787.246    0.1569E-22
  51787.308    0.1342E-22
  51787.370    0.1793E-22
  51787.432    0.2095E-22
  51787.494    0.1640E-22
  51787.556    0.1338E-22
  51787.618    0.1714E-22
  51787.680    0.2016E-22
  51787.742    0.2090E-22
  51787.804    0.2469E-22
  51787.865    0.3002E-22
  51787.927    0.2772E-22
  51787.989    0.2163E-22
  51788.051    0.2010E-22
  51788.113    0.2009E-22
  51788.175    0.2388E-22
  51788.237    0.2083E-22
  51788.299    0.1403E-22
  51788.361    0.1176E-22
  51788.423    0.1100E-22
  51788.485    0.1777E-22
  51788.547    0.2231E-22
  51788.609    0.2154E-22
  51788.671    0.8719E-23
  51788.733    0.5051E-24
  51788.795    0.1239E-23
  51788.857    0.8692E-23
  51788.919    0.1168E-22
  51788.981    0.1544E-22
  51789.043    0.1920E-22
  51789.105    0.1919E-22
  51789.167    0.2222E-22
  51789.229    0.2753E-22
  51789.291    0.3134E-22
  51789.353    0.3363E-22
  51789.414    0.3056E-22
  51789.476    0.2979E-22
  51789.538    0.2672E-22
  51789.600    0.1988E-22
  51789.662    0.1609E-22
  51789.724    0.1684E-22
  51789.786    0.1607E-22
  51789.848    0.2212E-22
  51789.910    0.2135E-22
  51789.972    0.1983E-22
  51790.034    0.1604E-22
  51790.096    0.9263E-23
  51790.158    0.1787E-23
  51790.220    0.5505E-23
  51790.282    0.1374E-22
  51790.344    0.1977E-22
  51790.406    0.2280E-22
  51790.468    0.2812E-22
  51790.530    0.2430E-22
  51790.592    0.1898E-22
  51790.654    0.1822E-22
  51790.716    0.1443E-22
  51790.778    0.1669E-22
  51790.840    0.2273E-22
  51790.902    0.2425E-22
  51790.964    0.2424E-22
  51791.026    0.2271E-22
  51791.088    0.2422E-22
  51791.150    0.1814E-22
  51791.211    0.1286E-22
  51791.273    0.7596E-23
  51791.335    0.6839E-23
  51791.397    0.9826E-23
  51791.459    0.1282E-22
  51791.521    0.1356E-22
  51791.583    0.1055E-22
  51791.645    0.1054E-22
  51791.707    0.8282E-23
  51791.769    0.8274E-23
  51791.831    0.9763E-23
  51791.893    0.1653E-22
  51791.955    0.1878E-22
  51792.017    0.1575E-22
  51792.079    0.1650E-22
  51792.141    0.1348E-22
  51792.203    0.1347E-22
  51792.265    0.1195E-22
  51792.327    0.1345E-22
  51792.389    0.1570E-22
  51792.451    0.1268E-22
  51792.513    0.1342E-22
  51792.575    0.1266E-22
  51792.637    0.1190E-22
  51792.699    0.6643E-23
  51792.761   -0.7430E-25
  51792.823   -0.2310E-23
  51792.885   -0.6019E-23
  51792.947   -0.4549E-23
  51793.009    0.1377E-23
  51793.071    0.2857E-23
  51793.133    0.3594E-23
  51793.195    0.4331E-23
  51793.257    0.1341E-23
  51793.318    0.1332E-23
  51793.380    0.5798E-24
  51793.442    0.6536E-23
  51793.504    0.9523E-23
  51793.566    0.1402E-22
  51793.628    0.1779E-22
  51793.690    0.1853E-22
  51793.752    0.2156E-22
  51793.814    0.2003E-22
  51793.876    0.6474E-23
  51793.938   -0.2470E-23
  51794.000   -0.2479E-23
  51794.062    0.4206E-23
  51794.124    0.4943E-23
  51794.186    0.1168E-22
  51794.248    0.1468E-22
  51794.310    0.1693E-22
  51794.372    0.2679E-22
  51794.434    0.3060E-22
  51794.496    0.3289E-22
  51794.558    0.2906E-22
  51794.620    0.2143E-22
  51794.682    0.1161E-22
  51794.744    0.2617E-23
  51794.806   -0.3336E-23
  51794.868   -0.2604E-23
  51794.930   -0.3864E-24
  51794.992   -0.3953E-24
  51795.054    0.6304E-23
  51795.116    0.9291E-23
  51795.178    0.1078E-22
  51795.240    0.1077E-22
  51795.302    0.1077E-22
  51795.364    0.1829E-22
  51795.426    0.2132E-22
  51795.488    0.1601E-22
  51795.550    0.6981E-23
  51795.612    0.3983E-23
  51795.674    0.3974E-23
  51795.736    0.1729E-23
  51795.798    0.1720E-23
  51795.860    0.3947E-23
  51795.922    0.5432E-23
  51795.983    0.9916E-23
  51796.045    0.1971E-22
  51796.107    0.2654E-22
  51796.169    0.2882E-22
  51796.231    0.2348E-22
  51796.293    0.1589E-22
  51796.355    0.3130E-23
  51796.417   -0.8004E-23
  51796.479   -0.1096E-22
  51796.541   -0.5806E-23
  51796.603    0.2349E-23
  51796.665    0.9068E-23
  51796.727    0.1282E-22
  51796.789    0.1809E-22
  51796.851    0.1355E-22
  51796.913    0.1128E-22
  51796.975    0.1128E-22
  51797.037    0.1277E-22
  51797.099    0.1578E-22
  51797.161    0.1879E-22
  51797.223    0.1350E-22
  51797.285    0.9729E-23
  51797.347    0.1047E-22
  51797.409    0.1121E-22
  51797.471    0.1799E-22
  51797.533    0.2405E-22
  51797.595    0.2862E-22
  51797.657    0.2785E-22
  51797.719    0.2631E-22
  51797.781    0.2326E-22
  51797.843    0.1643E-22
  51797.905    0.1340E-22
  51797.967    0.1490E-22
  51798.029    0.1188E-22
  51798.091    0.5120E-23
  51798.153   -0.3818E-23
  51798.215   -0.6786E-23
  51798.277   -0.5317E-23
  51798.339    0.6099E-24
  51798.401    0.3581E-23
  51798.463    0.5921E-24
  51798.525   -0.2389E-23
  51798.587   -0.3880E-23
  51798.649   -0.4630E-23
  51798.711   -0.6858E-23
  51798.773   -0.1423E-22
  51798.835   -0.1644E-22
  51798.897   -0.1278E-22
  51798.959   -0.9844E-23
  51799.021   -0.1280E-22
  51799.083   -0.2377E-22
  51799.145   -0.2232E-22
  51799.207   -0.1576E-22
  51799.269   -0.6938E-23
  51799.331    0.1211E-23
  51799.393    0.6428E-23
  51799.455    0.7917E-23
  51799.517    0.9408E-23
  51799.579    0.7150E-23
  51799.641    0.4225E-24
  51799.703    0.1158E-23
  51799.765   -0.2567E-23
  51799.827   -0.4800E-23
  51799.889    0.3868E-24
  51799.951    0.5599E-23
  51800.013    0.7087E-23
  51800.075    0.4087E-23
  51800.137    0.4078E-23
  51800.198    0.3323E-23
  51800.260    0.1822E-23
  51800.322    0.4051E-23
  51800.384    0.4789E-23
  51800.446    0.2541E-23
  51800.508    0.3278E-23
  51800.570    0.5510E-23
  51800.632    0.9998E-23
  51800.694    0.1753E-22
  51800.756    0.1752E-22
  51800.818    0.9971E-23
  51800.880    0.6962E-23
  51800.942    0.2470E-23
  51801.004    0.2262E-24
  51801.066   -0.5718E-23
  51801.128   -0.1236E-22
  51801.190   -0.1311E-22
  51801.252   -0.8700E-23
  51801.314   -0.2048E-23
  51801.376    0.1662E-23
  51801.438    0.1637E-24
  51801.500   -0.5890E-24
  51801.562    0.3873E-23
  51801.624    0.4611E-23
  51801.686    0.6098E-23
  51801.748    0.9837E-23
  51801.810    0.1133E-22
  51801.872    0.6819E-23
  51801.934    0.5314E-23
  51801.996    0.8300E-23
  51802.058    0.1506E-22
  51802.120    0.1884E-22
  51802.182    0.2034E-22
  51802.244    0.1579E-22
  51802.306    0.9757E-23
  51802.368    0.5251E-23
  51802.430    0.2083E-25
  51802.492   -0.5924E-23
  51802.554   -0.5192E-23
  51802.616   -0.2236E-23
  51802.678    0.2220E-23
  51802.740    0.1195E-22
  51802.802    0.1420E-22
  51802.864    0.8175E-23
  51802.926    0.6668E-23
  51802.988    0.4414E-23
  51803.050   -0.3040E-23
  51803.112   -0.1265E-22
  51803.174   -0.1633E-22
  51803.236   -0.1414E-22
  51803.298   -0.8257E-23
  51803.360   -0.3827E-23
  51803.422    0.1367E-23
  51803.484    0.2850E-23
  51803.546   -0.1399E-24
  51803.608   -0.3121E-23
  51803.670   -0.3130E-23
  51803.732    0.2068E-23
  51803.794    0.2059E-23
  51803.856   -0.1845E-24
  51803.918    0.2787E-23
  51803.980    0.7265E-23
  51804.042    0.8756E-23
  51804.104    0.9498E-23
  51804.166    0.1174E-22
  51804.228    0.1400E-22
  51804.290    0.1852E-22
  51804.352    0.1927E-22
  51804.414    0.1623E-22
  51804.476    0.8693E-23
  51804.538    0.9435E-23
  51804.600    0.9426E-23
  51804.662    0.4173E-23
  51804.724    0.1180E-23
  51804.786    0.5651E-23
  51804.848    0.8640E-23
  51804.910    0.1314E-22
  51804.972    0.1540E-22
  51805.034    0.1313E-22
  51805.096    0.1236E-22
  51805.158    0.1160E-22
  51805.220    0.8586E-23
  51805.282    0.5580E-23
  51805.344    0.4823E-23
  51805.406    0.1081E-22
  51805.468    0.1760E-22
  51805.530    0.2519E-22
  51805.592    0.2670E-22
  51805.654    0.2441E-22
  51805.716    0.1680E-22
  51805.778    0.4760E-23
  51805.840    0.2510E-23
  51805.902    0.5490E-23
  51805.964    0.7729E-23
  51806.026    0.6221E-23
  51806.088    0.1728E-23
  51806.150   -0.3487E-23
  51806.212   -0.6459E-23
  51806.274   -0.7947E-23
  51806.336   -0.8694E-23
  51806.398   -0.2781E-23
  51806.460    0.9295E-24
  51806.522    0.1757E-24
  51806.584    0.1657E-23
  51806.646    0.4635E-23
  51806.708    0.8372E-23
  51806.770    0.3870E-23
  51806.832   -0.6133E-24
  51806.894   -0.2109E-23
  51806.956   -0.2861E-23
  51807.018   -0.3612E-23
  51807.080   -0.2879E-23
  51807.142   -0.6579E-24
  51807.205    0.3060E-23
  51807.267    0.6791E-23
  51807.329    0.1430E-22
  51807.391    0.1429E-22
  51807.453    0.1580E-22
  51807.515    0.1579E-22
  51807.577    0.1276E-22
  51807.639    0.1200E-22
  51807.701    0.8980E-23
  51807.763    0.6720E-23
  51807.825    0.8211E-23
  51807.887    0.5204E-23
  51807.949    0.7151E-24
  51808.011   -0.5238E-23
  51808.073   -0.4765E-25
  51808.135    0.4421E-23
  51808.197    0.8157E-23
  51808.259    0.8148E-23
  51808.321    0.4394E-23
  51808.383    0.5133E-23
  51808.445    0.8872E-23
  51808.507    0.5864E-23
  51808.569    0.7354E-23
  51808.631    0.8095E-23
  51808.693    0.1353E-23
  51808.755   -0.7565E-23
  51808.817   -0.1347E-22
  51808.879   -0.1201E-22
  51808.941   -0.7592E-23
  51809.003   -0.5381E-23
  51809.065   -0.2422E-23
  51809.127   -0.1688E-23
  51809.189   -0.9528E-24
  51809.251    0.7255E-23
  51809.313    0.1176E-22
  51809.375    0.9490E-23
  51809.437    0.8729E-23
  51809.499    0.8720E-23
  51809.561    0.7211E-23
  51809.623    0.3459E-23
  51809.685    0.1956E-23
  51809.747    0.4936E-23
  51809.809    0.1168E-22
  51809.871    0.1696E-22
  51809.933    0.1771E-22
  51809.995    0.1694E-22
  51810.057    0.1845E-22
  51810.119    0.1996E-22
  51810.181    0.1995E-22
  51810.243    0.1539E-22
  51810.305    0.5604E-23
  51810.367    0.7094E-23
  51810.429    0.1235E-22
  51810.491    0.1763E-22
  51810.553    0.2066E-22
  51810.615    0.1913E-22
  51810.677    0.1836E-22
  51810.739    0.1759E-22
  51810.801    0.1607E-22
  51810.863    0.1379E-22
  51810.925    0.1228E-22
  51810.987    0.1756E-22
  51811.049    0.1831E-22
  51811.111    0.1982E-22
  51811.173    0.2133E-22
  51811.235    0.2056E-22
  51811.297    0.2131E-22
  51811.359    0.1978E-22
  51811.422    0.2357E-22
  51811.484    0.2357E-22
  51811.546    0.1748E-22
  51811.608    0.1444E-22
  51811.670    0.1217E-22
  51811.732    0.8399E-23
  51811.794    0.1065E-22
  51811.856    0.1668E-22
  51811.918    0.1894E-22
  51811.980    0.1666E-22
  51812.042    0.1589E-22
  51812.104    0.1060E-22
  51812.166    0.1134E-22
  51812.228    0.6826E-23
  51812.290    0.6068E-23
  51812.352    0.1056E-22
  51812.414    0.1508E-22
  51812.476    0.1886E-22
  51812.538    0.2341E-22
  51812.600    0.2188E-22
  51812.662    0.1883E-22
  51812.724    0.1807E-22
  51812.786    0.1352E-22
  51812.848    0.9741E-23
  51812.910    0.7478E-23
  51812.972    0.8971E-23
  51813.034    0.1273E-22
  51813.096    0.2181E-22
  51813.158    0.2256E-22
  51813.220    0.2255E-22
  51813.282    0.2331E-22
  51813.344    0.2101E-22
  51813.406    0.1570E-22
  51813.468    0.1266E-22
  51813.530    0.1115E-22
  51813.592    0.1340E-22
  51813.654    0.1339E-22
  51813.716    0.1112E-22
  51813.778    0.1187E-22
  51813.840    0.1337E-22
  51813.902    0.1109E-22
  51813.964    0.1410E-22
  51814.026    0.1788E-22
  51814.089    0.1711E-22
  51814.151    0.1938E-22
  51814.213    0.2393E-22
  51814.275    0.2469E-22
  51814.337    0.2927E-22
  51814.399    0.2696E-22
  51814.461    0.2466E-22
  51814.523    0.3078E-22
  51814.585    0.3307E-22
  51814.647    0.3076E-22
  51814.709    0.3075E-22
  51814.771    0.3305E-22
  51814.833    0.2996E-22
  51814.895    0.2384E-22
  51814.957    0.1926E-22
  51815.019    0.1698E-22
  51815.081    0.2076E-22
  51815.143    0.2609E-22
  51815.205    0.3221E-22
  51815.267    0.3606E-22
  51815.329    0.3220E-22
  51815.391    0.2988E-22
  51815.453    0.2911E-22
  51815.515    0.2527E-22
  51815.577    0.2603E-22
  51815.639    0.2831E-22
  51815.701    0.2831E-22
  51815.763    0.2219E-22
  51815.825    0.1459E-22
  51815.887    0.8551E-23
  51815.949    0.8542E-23
  51816.011    0.8533E-23
  51816.073    0.6272E-23
  51816.135    0.7013E-23
  51816.198    0.1152E-22
  51816.260    0.1302E-22
  51816.322    0.7737E-23
  51816.384    0.7728E-23
  51816.446    0.7719E-23
  51816.508    0.6209E-23
  51816.570    0.6200E-23
  51816.632    0.3944E-23
  51816.694    0.1998E-24
  51816.756    0.9368E-24
  51816.818    0.5415E-23
  51816.880    0.4657E-23
  51816.942    0.4648E-23
  51817.004    0.9142E-23
  51817.066    0.9885E-23
  51817.128    0.1440E-22
  51817.190    0.2274E-22
  51817.252    0.2579E-22
  51817.314    0.2731E-22
  51817.376    0.2500E-22
  51817.438    0.2042E-22
  51817.500    0.2346E-22
  51817.562    0.2651E-22
  51817.624    0.2344E-22
  51817.686    0.2267E-22
  51817.748    0.2114E-22
  51817.810    0.1657E-22
  51817.872    0.1808E-22
  51817.935    0.2569E-22
  51817.997    0.3412E-22
  51818.059    0.3488E-22
  51818.121    0.2566E-22
  51818.183    0.1652E-22
  51818.245    0.1047E-22
  51818.307    0.7451E-23
  51818.369    0.1801E-22
  51818.431    0.2256E-22
  51818.493    0.2027E-22
  51818.555    0.2178E-22
  51818.617    0.2254E-22
  51818.679    0.2405E-22
  51818.741    0.2481E-22
  51818.803    0.2480E-22
  51818.865    0.3015E-22
  51818.927    0.3168E-22
  51818.989    0.3244E-22
  51819.051    0.3938E-22
  51819.113    0.4558E-22
  51819.175    0.5261E-22
  51819.237    0.5339E-22
  51819.299    0.4868E-22
  51819.361    0.4477E-22
  51819.423    0.4398E-22
  51819.485    0.3931E-22
  51819.548    0.2852E-22
  51819.610    0.2087E-22
  51819.672    0.1934E-22
  51819.734    0.2390E-22
  51819.796    0.3002E-22
  51819.858    0.3385E-22
  51819.920    0.4158E-22
  51819.982    0.4702E-22
  51820.044    0.4857E-22
  51820.106    0.4856E-22
  51820.168    0.4777E-22
  51820.230    0.4309E-22
  51820.292    0.3610E-22
  51820.354    0.3301E-22
  51820.416    0.3223E-22
  51820.478    0.3530E-22
  51820.540    0.4226E-22
  51820.602    0.5240E-22
  51820.664    0.6185E-22
  51820.726    0.7379E-22
  51820.788    0.7940E-22
  51820.850    0.7217E-22
  51820.912    0.6897E-22
  51820.975    0.6419E-22
  51821.037    0.6022E-22
  51821.099    0.6417E-22
  51821.161    0.6575E-22
  51821.223    0.6336E-22
  51821.285    0.6018E-22
  51821.347    0.5387E-22
  51821.409    0.5386E-22
  51821.471    0.5306E-22
  51821.533    0.5384E-22
  51821.595    0.5619E-22
  51821.657    0.5382E-22
  51821.719    0.5303E-22
  51821.781    0.5695E-22
  51821.843    0.5694E-22
  51821.905    0.5930E-22
  51821.967    0.5771E-22
  51822.029    0.5849E-22
  51822.091    0.6165E-22
  51822.153    0.6164E-22
  51822.215    0.6242E-22
  51822.277    0.6320E-22
  51822.340    0.7195E-22
  51822.402    0.7917E-22
  51822.464    0.8643E-22
  51822.526    0.9130E-22
  51822.588    0.9947E-22
  51822.650    0.1060E-21
  51822.712    0.1036E-21
  51822.774    0.9862E-22
  51822.836    0.8962E-22
  51822.898    0.8071E-22
  51822.960    0.7748E-22
  51823.022    0.7747E-22
  51823.084    0.8149E-22
  51823.146    0.8877E-22
  51823.208    0.9938E-22
  51823.270    0.1060E-21
  51823.332    0.1126E-21
  51823.394    0.1151E-21
  51823.456    0.1092E-21
  51823.518    0.1051E-21
  51823.581    0.1067E-21
  51823.643    0.1084E-21
  51823.705    0.1217E-21
  51823.767    0.1293E-21
  51823.829    0.1395E-21
  51823.891    0.1532E-21
  51823.953    0.1575E-21
  51824.015    0.1567E-21
  51824.077    0.1575E-21
  51824.139    0.1619E-21
  51824.201    0.1662E-21
  51824.263    0.1636E-21
  51824.325    0.1618E-21
  51824.387    0.1609E-21
  51824.449    0.1583E-21
  51824.511    0.1583E-21
  51824.573    0.1670E-21
  51824.635    0.1829E-21
  51824.697    0.1964E-21
  51824.760    0.2027E-21
  51824.822    0.2100E-21
  51824.884    0.2127E-21
  51824.946    0.2118E-21
  51825.008    0.2127E-21
  51825.070    0.2182E-21
  51825.132    0.2200E-21
  51825.194    0.2218E-21
  51825.256    0.2265E-21
  51825.318    0.2292E-21
  51825.380    0.2348E-21
  51825.442    0.2320E-21
  51825.504    0.2311E-21
  51825.566    0.2339E-21
  51825.628    0.2404E-21
  51825.690    0.2451E-21
  51825.752    0.2451E-21
  51825.815    0.2442E-21
  51825.877    0.2404E-21
  51825.939    0.2329E-21
  51826.001    0.2347E-21
  51826.063    0.2310E-21
  51826.125    0.2226E-21
  51826.187    0.2217E-21
  51826.249    0.2217E-21
  51826.311    0.2217E-21
  51826.373    0.2180E-21
  51826.435    0.2097E-21
  51826.497    0.2061E-21
  51826.559    0.2070E-21
  51826.621    0.2006E-21
  51826.683    0.1934E-21
  51826.745    0.1925E-21
  51826.807    0.1880E-21
  51826.870    0.1835E-21
  51826.932    0.1737E-21
  51826.994    0.1632E-21
  51827.056    0.1562E-21
  51827.118    0.1493E-21
  51827.180    0.1484E-21
  51827.242    0.1475E-21
  51827.304    0.1415E-21
  51827.366    0.1398E-21
  51827.428    0.1424E-21
  51827.490    0.1406E-21
  51827.552    0.1381E-21
  51827.614    0.1313E-21
  51827.676    0.1253E-21
  51827.738    0.1262E-21
  51827.800    0.1295E-21
  51827.862    0.1312E-21
  51827.925    0.1346E-21
  51827.987    0.1363E-21
  51828.049    0.1355E-21
  51828.111    0.1303E-21
  51828.173    0.1244E-21
  51828.235    0.1236E-21
  51828.297    0.1278E-21
  51828.359    0.1354E-21
  51828.421    0.1448E-21
  51828.483    0.1439E-21
  51828.545    0.1337E-21
  51828.607    0.1235E-21
  51828.669    0.1151E-21
  51828.731    0.1110E-21
  51828.793    0.1076E-21
  51828.856    0.1134E-21
  51828.918    0.1226E-21
  51828.980    0.1362E-21
  51829.042    0.1387E-21
  51829.104    0.1353E-21
  51829.166    0.1327E-21
  51829.228    0.1277E-21
  51829.290    0.1217E-21
  51829.352    0.1209E-21
  51829.414    0.1268E-21
  51829.476    0.1234E-21
  51829.538    0.1217E-21
  51829.600    0.1234E-21
  51829.662    0.1217E-21
  51829.724    0.1234E-21
  51829.787    0.1250E-21
  51829.849    0.1183E-21
  51829.911    0.1067E-21
  51829.973    0.9840E-22
  51830.035    0.9348E-22
  51830.097    0.8776E-22
  51830.159    0.8613E-22
  51830.221    0.8612E-22
  51830.283    0.8368E-22
  51830.345    0.7721E-22
  51830.407    0.8043E-22
  51830.469    0.7961E-22
  51830.531    0.7960E-22
  51830.593    0.8364E-22
  51830.655    0.8687E-22
  51830.718    0.8767E-22
  51830.780    0.8523E-22
  51830.842    0.8117E-22
  51830.904    0.7794E-22
  51830.966    0.7793E-22
  51831.028    0.7792E-22
  51831.090    0.7550E-22
  51831.152    0.6988E-22
  51831.214    0.6668E-22
  51831.276    0.5558E-22
  51831.338    0.5164E-22
  51831.400    0.4459E-22
  51831.462    0.4770E-22
  51831.524    0.5791E-22
  51831.587    0.6982E-22
  51831.649    0.7381E-22
  51831.711    0.7300E-22
  51831.773    0.7219E-22
  51831.835    0.6262E-22
  51831.897    0.5628E-22
  51831.959    0.5785E-22
  51832.021    0.5784E-22
  51832.083    0.5389E-22
  51832.145    0.5546E-22
  51832.207    0.5624E-22
  51832.269    0.5939E-22
  51832.331    0.6096E-22
  51832.394    0.5858E-22
  51832.456    0.5936E-22
  51832.518    0.6331E-22
  51832.580    0.7288E-22
  51832.642    0.8091E-22
  51832.704    0.7929E-22
  51832.766    0.6805E-22
  51832.828    0.5221E-22
  51832.890    0.4515E-22
  51832.952    0.4047E-22
  51833.014    0.4748E-22
  51833.076    0.5532E-22
  51833.138    0.5847E-22
  51833.200    0.6004E-22
  51833.263    0.5845E-22
  51833.325    0.5135E-22
  51833.387    0.4664E-22
  51833.449    0.4040E-22
  51833.511    0.3729E-22
  51833.573    0.3419E-22
  51833.635    0.3341E-22
  51833.697    0.3494E-22
  51833.759    0.3570E-22
  51833.821    0.4035E-22
  51833.883    0.4112E-22
  51833.945    0.3490E-22
  51834.008    0.2337E-22
  51834.070    0.1499E-22
  51834.132    0.9682E-23
  51834.194    0.9673E-23
  51834.256    0.1876E-22
  51834.318    0.3099E-22
  51834.380    0.4494E-22
  51834.442    0.5198E-22
  51834.504    0.5433E-22
  51834.566    0.4960E-22
  51834.628    0.3945E-22
  51834.690    0.3712E-22
  51834.752    0.3170E-22
  51834.815    0.3092E-22
  51834.877    0.2784E-22
  51834.939    0.2171E-22
  51835.001    0.1865E-22
  51835.063    0.2092E-22
  51835.125    0.1559E-22
  51835.187    0.1786E-22
  51835.249    0.3317E-22
  51835.311    0.4169E-22
  51835.373    0.4870E-22
  51835.435    0.5498E-22
  51835.497    0.5340E-22
  51835.560    0.5024E-22
  51835.622    0.4788E-22
  51835.684    0.4475E-22
  51835.746    0.4396E-22
  51835.808    0.4084E-22
  51835.870    0.3540E-22
  51835.932    0.2692E-22
  51835.994    0.2385E-22
  51836.056    0.3074E-22
  51836.118    0.3536E-22
  51836.180    0.3381E-22
  51836.242    0.2304E-22
  51836.305    0.1770E-22
  51836.367    0.1162E-22
  51836.429    0.8597E-23
  51836.491    0.1010E-22
  51836.553    0.1538E-22
  51836.615    0.2146E-22
  51836.677    0.2451E-22
  51836.739    0.2374E-22
  51836.801    0.2144E-22
  51836.863    0.2219E-22
  51836.925    0.2754E-22
  51836.987    0.3679E-22
  51837.050    0.3988E-22
  51837.112    0.3754E-22
  51837.174    0.3289E-22
  51837.236    0.2750E-22
  51837.298    0.3133E-22
  51837.360    0.2902E-22
  51837.422    0.2594E-22
  51837.484    0.2516E-22
  51837.546    0.2286E-22
  51837.608    0.2514E-22
  51837.670    0.3437E-22
  51837.733    0.3901E-22
  51837.795    0.3744E-22
  51837.857    0.3589E-22
  51837.919    0.2663E-22
  51837.981    0.1366E-22
  51838.043    0.5353E-23
  51838.105    0.8354E-23
  51838.167    0.1212E-22
  51838.229    0.1894E-22
  51838.291    0.2734E-22
  51838.353    0.2504E-22
  51838.416    0.2579E-22
  51838.478    0.2196E-22
  51838.540    0.1966E-22
  51838.602    0.1813E-22
  51838.664    0.1736E-22
  51838.726    0.2040E-22
  51838.788    0.2574E-22
  51838.850    0.3420E-22
  51838.912    0.3419E-22
  51838.974    0.3573E-22
  51839.036    0.4271E-22
  51839.099    0.4270E-22
  51839.161    0.4269E-22
  51839.223    0.4424E-22
  51839.285    0.4579E-22
  51839.347    0.4891E-22
  51839.409    0.4734E-22
  51839.471    0.4264E-22
  51839.533    0.3564E-22
  51839.595    0.3100E-22
  51839.657    0.2792E-22
  51839.719    0.2407E-22
  51839.782    0.1568E-22
  51839.844   -0.9031E-24
  51839.906   -0.6130E-23
  51839.968   -0.3906E-23
  51840.030    0.3563E-23
  51840.092    0.1336E-22
  51840.154    0.2708E-22
  51840.216    0.3555E-22
  51840.278    0.3399E-22
  51840.340    0.3708E-22
  51840.402    0.3629E-22
  51840.465    0.3396E-22
  51840.527    0.3550E-22
  51840.589    0.3627E-22
  51840.651    0.2931E-22
  51840.713    0.1935E-22
  51840.775    0.1553E-22
  51840.837    0.1174E-22
  51840.899    0.1173E-22
  51840.961    0.1399E-22
  51841.023    0.2312E-22
  51841.086    0.3387E-22
  51841.148    0.4474E-22
  51841.210    0.4239E-22
  51841.272    0.3385E-22
  51841.334    0.2690E-22
  51841.396    0.2383E-22
  51841.458    0.2306E-22
  51841.520    0.2152E-22
  51841.582    0.1770E-22
  51841.644    0.1845E-22
  51841.707    0.1920E-22
  51841.769    0.1919E-22
  51841.831    0.9324E-23
  51841.893    0.4796E-23
  51841.955    0.5539E-23
  51842.017    0.1232E-22
  51842.079    0.2833E-22
  51842.141    0.4070E-22
  51842.203    0.4772E-22
  51842.265    0.4771E-22
  51842.328    0.4848E-22
  51842.390    0.4926E-22
  51842.452    0.4690E-22
  51842.514    0.3987E-22
  51842.576    0.3134E-22
  51842.638    0.2748E-22
  51842.700    0.2824E-22
  51842.762    0.3209E-22
  51842.824    0.3285E-22
  51842.886    0.3207E-22
  51842.949    0.2821E-22
  51843.011    0.2743E-22
  51843.073    0.2512E-22
  51843.135    0.2511E-22
  51843.197    0.2510E-22
  51843.259    0.2586E-22
  51843.321    0.2662E-22
  51843.383    0.3045E-22
  51843.445    0.3122E-22
  51843.507    0.3739E-22
  51843.570    0.4361E-22
  51843.632    0.4594E-22
  51843.694    0.4359E-22
  51843.756    0.4124E-22
  51843.818    0.4279E-22
  51843.880    0.4356E-22
  51843.942    0.4825E-22
  51844.004    0.5059E-22
  51844.066    0.5216E-22
  51844.128    0.4979E-22
  51844.191    0.4586E-22
  51844.253    0.3962E-22
  51844.315    0.2724E-22
  51844.377    0.1653E-22
  51844.439    0.1121E-22
  51844.501    0.1424E-22
  51844.563    0.2261E-22
  51844.625    0.2720E-22
  51844.687    0.3104E-22
  51844.750    0.3566E-22
  51844.812    0.3643E-22
  51844.874    0.3953E-22
  51844.936    0.3719E-22
  51844.998    0.3408E-22
  51845.060    0.3175E-22
  51845.122    0.3174E-22
  51845.184    0.3405E-22
  51845.246    0.3250E-22
  51845.309    0.3404E-22
  51845.371    0.3557E-22
  51845.433    0.4022E-22
  51845.495    0.3866E-22
  51845.557    0.4098E-22
  51845.619    0.3399E-22
  51845.681    0.2244E-22
  51845.743    0.1862E-22
  51845.805    0.2779E-22
  51845.867    0.3628E-22
  51845.930    0.4093E-22
  51845.992    0.4482E-22
  51846.054    0.4559E-22
  51846.116    0.5029E-22
  51846.178    0.5658E-22
  51846.240    0.5895E-22
  51846.302    0.6132E-22
  51846.364    0.5419E-22
  51846.426    0.4554E-22
  51846.489    0.3774E-22
  51846.551    0.3000E-22
  51846.613    0.2922E-22
  51846.675    0.3461E-22
  51846.737    0.3770E-22
  51846.799    0.3769E-22
  51846.861    0.3846E-22
  51846.923    0.3768E-22
  51846.985    0.3612E-22
  51847.048    0.3844E-22
  51847.110    0.3998E-22
  51847.172    0.3997E-22
  51847.234    0.3531E-22
  51847.296    0.3066E-22
  51847.358    0.3297E-22
  51847.420    0.3296E-22
  51847.482    0.2986E-22
  51847.545    0.3062E-22
  51847.607    0.3370E-22
  51847.669    0.2906E-22
  51847.731    0.2752E-22
  51847.793    0.2674E-22
  51847.855    0.3212E-22
  51847.917    0.3211E-22
  51847.979    0.3520E-22
  51848.041    0.4140E-22
  51848.104    0.4608E-22
  51848.166    0.5078E-22
  51848.228    0.4998E-22
  51848.290    0.5233E-22
  51848.352    0.5075E-22
  51848.414    0.5310E-22
  51848.476    0.5388E-22
  51848.538    0.4915E-22
  51848.600    0.4758E-22
  51848.663    0.4757E-22
  51848.725    0.4677E-22
  51848.787    0.5226E-22
  51848.849    0.5937E-22
  51848.911    0.5619E-22
  51848.973    0.4909E-22
  51849.035    0.4595E-22
  51849.097    0.4437E-22
  51849.160    0.3968E-22
  51849.222    0.3115E-22
  51849.284    0.2883E-22
  51849.346    0.3113E-22
  51849.408    0.3654E-22
  51849.470    0.4354E-22
  51849.532    0.4744E-22
  51849.594    0.4900E-22
  51849.656    0.4899E-22
  51849.719    0.4741E-22
  51849.781    0.4427E-22
  51849.843    0.4192E-22
  51849.905    0.4191E-22
  51849.967    0.4112E-22
  51850.029    0.4346E-22
  51850.091    0.4423E-22
  51850.153    0.4735E-22
  51850.216    0.4813E-22
  51850.278    0.4655E-22
  51850.340    0.4497E-22
  51850.402    0.4340E-22
  51850.464    0.4183E-22
  51850.526    0.3949E-22
  51850.588    0.3948E-22
  51850.650    0.4571E-22
  51850.713    0.5593E-22
  51850.775    0.6385E-22
  51850.837    0.7024E-22
  51850.899    0.7424E-22
  51850.961    0.6942E-22
  51851.023    0.6223E-22
  51851.085    0.5746E-22
  51851.147    0.5192E-22
  51851.210    0.4563E-22
  51851.272    0.4562E-22
  51851.334    0.5111E-22
  51851.396    0.5504E-22
  51851.458    0.6216E-22
  51851.520    0.6295E-22
  51851.582    0.5897E-22
  51851.644    0.5579E-22
  51851.707    0.5342E-22
  51851.769    0.4869E-22
  51851.831    0.4476E-22
  51851.893    0.4945E-22
  51851.955    0.5575E-22
  51852.017    0.6527E-22
  51852.079    0.6846E-22
  51852.141    0.6048E-22
  51852.204    0.5730E-22
  51852.266    0.5887E-22
  51852.328    0.6283E-22
  51852.390    0.6362E-22
  51852.452    0.5964E-22
  51852.514    0.5725E-22
  51852.576    0.5645E-22
  51852.638    0.6438E-22
  51852.701    0.7318E-22
  51852.763    0.7720E-22
  51852.825    0.7638E-22
  51852.887    0.7235E-22
  51852.949    0.6833E-22
  51853.011    0.6273E-22
  51853.073    0.6034E-22
  51853.135    0.6033E-22
  51853.198    0.6590E-22
  51853.260    0.6429E-22
  51853.322    0.6269E-22
  51853.384    0.6109E-22
  51853.446    0.6347E-22
  51853.508    0.6505E-22
  51853.570    0.5948E-22
  51853.632    0.5709E-22
  51853.695    0.6025E-22
  51853.757    0.6183E-22
  51853.819    0.6341E-22
  51853.881    0.6580E-22
  51853.943    0.7059E-22
  51854.005    0.7299E-22
  51854.067    0.7943E-22
  51854.129    0.7861E-22
  51854.192    0.7699E-22
  51854.254    0.7779E-22
  51854.316    0.7536E-22
  51854.378    0.7455E-22
  51854.440    0.7293E-22
  51854.502    0.7695E-22
  51854.564    0.7936E-22
  51854.627    0.7854E-22
  51854.689    0.7692E-22
  51854.751    0.8095E-22
  51854.813    0.8257E-22
  51854.875    0.8418E-22
  51854.937    0.8417E-22
  51854.999    0.7687E-22
  51855.061    0.6244E-22
  51855.124    0.4977E-22
  51855.186    0.4584E-22
  51855.248    0.4975E-22
  51855.310    0.6161E-22
  51855.372    0.7763E-22
  51855.434    0.8980E-22
  51855.496    0.8653E-22
  51855.559    0.8084E-22
  51855.621    0.8326E-22
  51855.683    0.8977E-22
  51855.745    0.9140E-22
  51855.807    0.8567E-22
  51855.869    0.8079E-22
  51855.931    0.9301E-22
  51855.994    0.1012E-21
  51856.056    0.1037E-21
  51856.118    0.1078E-21
  51856.180    0.1112E-21
  51856.242    0.1112E-21
  51856.304    0.1086E-21
  51856.366    0.1045E-21
  51856.428    0.1061E-21
  51856.491    0.1111E-21
  51856.553    0.1078E-21
  51856.615    0.1078E-21
  51856.677    0.1028E-21
  51856.739    0.1003E-21
  51856.801    0.9617E-22
  51856.863    0.9863E-22
  51856.926    0.1052E-21
  51856.988    0.1152E-21
  51857.050    0.1228E-21
  51857.112    0.1228E-21
  51857.174    0.1236E-21
  51857.236    0.1211E-21
  51857.298    0.1202E-21
  51857.361    0.1194E-21
  51857.423    0.1244E-21
  51857.485    0.1278E-21
  51857.547    0.1312E-21
  51857.609    0.1329E-21
  51857.671    0.1303E-21
  51857.733    0.1261E-21
  51857.796    0.1269E-21
  51857.858    0.1328E-21
  51857.920    0.1492E-21
  51857.982    0.1631E-21
  51858.044    0.1675E-21
  51858.106    0.1701E-21
  51858.168    0.1683E-21
  51858.230    0.1657E-21
  51858.293    0.1666E-21
  51858.355    0.1710E-21
  51858.417    0.1780E-21
  51858.479    0.1825E-21
  51858.541    0.1870E-21
  51858.603    0.1915E-21
  51858.665    0.1942E-21
  51858.728    0.1978E-21
  51858.790    0.1996E-21
  51858.852    0.1905E-21
  51858.914    0.1824E-21
  51858.976    0.1851E-21
  51859.038    0.1950E-21
  51859.100    0.2023E-21
  51859.163    0.2086E-21
  51859.225    0.2096E-21
  51859.287    0.2041E-21
  51859.349    0.2040E-21
  51859.411    0.2114E-21
  51859.473    0.2197E-21
  51859.536    0.2290E-21
  51859.598    0.2290E-21
  51859.660    0.2299E-21
  51859.722    0.2299E-21
  51859.784    0.2355E-21
  51859.846    0.2411E-21
  51859.908    0.2497E-21
  51859.971    0.2612E-21
  51860.033    0.2767E-21
  51860.095    0.2895E-21
  51860.157    0.2945E-21
  51860.219    0.3045E-21
  51860.281    0.3146E-21
  51860.343    0.3227E-21
  51860.406    0.3361E-21
  51860.468    0.3465E-21
  51860.530    0.3560E-21
  51860.592    0.3655E-21
  51860.654    0.3762E-21
  51860.716    0.3881E-21
  51860.778    0.3958E-21
  51860.841    0.4079E-21
  51860.903    0.4213E-21
  51860.965    0.4372E-21
  51861.027    0.4533E-21
  51861.089    0.4650E-21
  51861.151    0.4768E-21
  51861.213    0.4779E-21
  51861.276    0.4767E-21
  51861.338    0.4887E-21
  51861.400    0.5020E-21
  51861.462    0.5191E-21
  51861.524    0.5429E-21
  51861.586    0.5543E-21
  51861.649    0.5711E-21
  51861.711    0.5907E-21
  51861.773    0.6000E-21
  51861.835    0.6121E-21
  51861.897    0.6275E-21
  51861.959    0.6487E-21
  51862.021    0.6619E-21
  51862.084    0.6730E-21
  51862.146    0.6868E-21
  51862.208    0.7001E-21
  51862.270    0.7170E-21
  51862.332    0.7316E-21
  51862.394    0.7439E-21
  51862.457    0.7477E-21
  51862.519    0.7423E-21
  51862.581    0.7477E-21
  51862.643    0.7577E-21
  51862.705    0.7569E-21
  51862.767    0.7564E-21
  51862.829    0.7556E-21
  51862.892    0.7518E-21
  51862.954    0.7505E-21
  51863.016    0.7569E-21
  51863.078    0.7574E-21
  51863.140    0.7502E-21
  51863.202    0.7512E-21
  51863.265    0.7422E-21
  51863.327    0.7422E-21
  51863.389    0.7459E-21
  51863.451    0.7425E-21
  51863.513    0.7295E-21
  51863.575    0.7126E-21
  51863.637    0.7043E-21
  51863.700    0.6949E-21
  51863.762    0.6858E-21
  51863.824    0.6822E-21
  51863.886    0.6740E-21
  51863.948    0.6654E-21
  51864.010    0.6610E-21
  51864.073    0.6455E-21
  51864.135    0.6283E-21
  51864.197    0.6167E-21
  51864.259    0.5733E-21
  51864.321    0.5590E-21
  51864.383    0.5539E-21
  51864.445    0.5437E-21
  51864.508    0.5311E-21
  51864.570    0.5249E-21
  51864.632    0.5211E-21
  51864.694    0.5186E-21
  51864.756    0.5174E-21
  51864.818    0.5174E-21
  51864.881    0.5125E-21
  51864.943    0.5088E-21
  51865.005    0.5027E-21
  51865.067    0.4990E-21
  51865.129    0.5039E-21
  51865.191    0.5038E-21
  51865.254    0.4978E-21
  51865.316    0.5026E-21
  51865.378    0.5050E-21
  51865.440    0.4929E-21
  51865.502    0.4761E-21
  51865.564    0.4561E-21
  51865.627    0.4365E-21
  51865.689    0.4251E-21
  51865.751    0.4184E-21
  51865.813    0.4161E-21
  51865.875    0.4139E-21
  51865.937    0.4116E-21
  51865.999    0.4105E-21
  51866.062    0.4049E-21
  51866.124    0.4005E-21
  51866.186    0.4027E-21
  51866.248    0.4071E-21
  51866.310    0.4127E-21
  51866.372    0.4116E-21
  51866.435    0.4038E-21
  51866.497    0.3993E-21
  51866.559    0.4049E-21
  51866.621    0.4026E-21
  51866.683    0.3905E-21
  51866.745    0.3873E-21
  51866.808    0.3840E-21
  51866.870    0.3764E-21
  51866.932    0.3667E-21
  51866.994    0.3582E-21
  51867.056    0.3487E-21
  51867.118    0.3508E-21
  51867.181    0.3508E-21
  51867.243    0.3445E-21
  51867.305    0.3413E-21
  51867.367    0.3320E-21
  51867.429    0.3227E-21
  51867.491    0.3176E-21
  51867.554    0.3115E-21
  51867.616    0.2984E-21
  51867.678    0.2914E-21
  51867.740    0.2815E-21
  51867.802    0.2815E-21
  51867.864    0.2775E-21
  51867.927    0.2658E-21
  51867.989    0.2571E-21
  51868.051    0.2514E-21
  51868.113    0.2437E-21
  51868.175    0.2409E-21
  51868.237    0.2314E-21
  51868.300    0.2230E-21
  51868.362    0.2193E-21
  51868.424    0.2110E-21
  51868.486    0.2036E-21
  51868.548    0.1991E-21
  51868.610    0.1954E-21
  51868.673    0.1936E-21
  51868.735    0.1990E-21
  51868.797    0.1990E-21
  51868.859    0.1909E-21
  51868.921    0.1846E-21
  51868.983    0.1837E-21
  51869.046    0.1917E-21
  51869.108    0.1972E-21
  51869.170    0.2008E-21
  51869.232    0.2026E-21
  51869.294    0.2017E-21
  51869.356    0.1980E-21
  51869.419    0.1890E-21
  51869.481    0.1827E-21
  51869.543    0.1755E-21
  51869.605    0.1649E-21
  51869.667    0.1649E-21
  51869.729    0.1675E-21
  51869.792    0.1693E-21
  51869.854    0.1684E-21
  51869.916    0.1684E-21
  51869.978    0.1684E-21
  51870.040    0.1657E-21
  51870.103    0.1640E-21
  51870.165    0.1675E-21
  51870.227    0.1657E-21
  51870.289    0.1639E-21
  51870.351    0.1587E-21
  51870.413    0.1456E-21
  51870.476    0.1387E-21
  51870.538    0.1327E-21
  51870.600    0.1276E-21
  51870.662    0.1318E-21
  51870.724    0.1335E-21
  51870.786    0.1327E-21
  51870.849    0.1310E-21
  51870.911    0.1267E-21
  51870.973    0.1191E-21
  51871.035    0.1132E-21
  51871.097    0.1073E-21
  51871.159    0.1073E-21
  51871.222    0.1123E-21
  51871.284    0.1115E-21
  51871.346    0.1157E-21
  51871.408    0.1224E-21
  51871.470    0.1275E-21
  51871.533    0.1343E-21
  51871.595    0.1394E-21
  51871.657    0.1403E-21
  51871.719    0.1411E-21
  51871.781    0.1394E-21
  51871.843    0.1359E-21
  51871.906    0.1317E-21
  51871.968    0.1206E-21
  51872.030    0.1097E-21
  51872.092    0.1047E-21
  51872.154    0.9641E-22
  51872.216    0.9311E-22
  51872.279    0.1014E-21
  51872.341    0.1072E-21
  51872.403    0.1088E-21
  51872.465    0.1071E-21
  51872.527    0.1021E-21
  51872.590    0.9717E-22
  51872.652    0.9799E-22
  51872.714    0.1096E-21
  51872.776    0.1205E-21
  51872.838    0.1213E-21
  51872.900    0.1146E-21
  51872.963    0.1071E-21
  51873.025    0.1029E-21
  51873.087    0.1029E-21
  51873.149    0.9874E-22
  51873.211    0.9050E-22
  51873.274    0.8640E-22
  51873.336    0.8313E-22
  51873.398    0.8150E-22
  51873.460    0.7986E-22
  51873.522    0.7823E-22
  51873.584    0.8310E-22
  51873.647    0.8880E-22
  51873.709    0.9289E-22
  51873.771    0.9618E-22
  51873.833    0.9617E-22
  51873.895    0.9616E-22
  51873.958    0.1003E-21
  51874.020    0.1052E-21
  51874.082    0.1153E-21
  51874.144    0.1178E-21
  51874.206    0.1169E-21
  51874.268    0.1144E-21
  51874.331    0.1085E-21
  51874.393    0.1052E-21
  51874.455    0.1002E-21
  51874.517    0.1019E-21
  51874.579    0.9936E-22
  51874.642    0.9523E-22
  51874.704    0.9029E-22
  51874.766    0.9028E-22
  51874.828    0.9438E-22
  51874.890    0.1076E-21
  51874.952    0.1210E-21
  51875.015    0.1244E-21
  51875.077    0.1252E-21
  51875.139    0.1261E-21
  51875.201    0.1227E-21
  51875.263    0.1134E-21
  51875.326    0.1034E-21
  51875.388    0.1009E-21
  51875.450    0.1001E-21
  51875.512    0.1067E-21
  51875.574    0.1167E-21
  51875.637    0.1235E-21
  51875.699    0.1286E-21
  51875.761    0.1251E-21
  51875.823    0.1083E-21
  51875.885    0.9258E-22
  51875.947    0.7626E-22
  51876.010    0.7061E-22
  51876.072    0.6819E-22
  51876.134    0.6737E-22
  51876.196    0.7138E-22
  51876.258    0.7460E-22
  51876.321    0.8596E-22
  51876.383    0.9497E-22
  51876.445    0.1007E-21
  51876.507    0.1082E-21
  51876.569    0.1166E-21
  51876.632    0.1199E-21
  51876.694    0.1149E-21
  51876.756    0.1132E-21
  51876.818    0.1140E-21
  51876.880    0.1157E-21
  51876.942    0.1174E-21
  51877.005    0.1140E-21
  51877.067    0.1106E-21
  51877.129    0.1073E-21
  51877.191    0.1023E-21
  51877.253    0.1006E-21
  51877.316    0.1023E-21
  51877.378    0.9896E-22
  51877.440    0.9235E-22
  51877.502    0.9152E-22
  51877.564    0.9810E-22
  51877.627    0.1022E-21
  51877.689    0.1080E-21
  51877.751    0.1131E-21
  51877.813    0.1122E-21
  51877.875    0.1147E-21
  51877.938    0.1172E-21
  51878.000    0.1231E-21
  51878.062    0.1265E-21
  51878.124    0.1316E-21
  51878.186    0.1299E-21
  51878.249    0.1189E-21
  51878.311    0.1088E-21
  51878.373    0.1021E-21
  51878.435    0.1021E-21
  51878.497    0.1079E-21
  51878.559    0.1180E-21
  51878.622    0.1104E-21
  51878.684    0.1037E-21
  51878.746    0.1021E-21
  51878.808    0.1054E-21
  51878.870    0.1062E-21
  51878.933    0.1079E-21
  51878.995    0.1162E-21
  51879.057    0.1196E-21
  51879.119    0.1213E-21
  51879.181    0.1221E-21
  51879.244    0.1170E-21
  51879.306    0.1078E-21
  51879.368    0.9949E-22
  51879.430    0.8878E-22
  51879.492    0.9288E-22
  51879.555    0.1078E-21
  51879.617    0.1170E-21
  51879.679    0.1237E-21
  51879.741    0.1314E-21
  51879.803    0.1339E-21
  51879.866    0.1391E-21
  51879.928    0.1434E-21
  51879.990    0.1434E-21
  51880.052    0.1348E-21
  51880.114    0.1254E-21
  51880.177    0.1186E-21
  51880.239    0.1144E-21
  51880.301    0.1135E-21
  51880.363    0.1135E-21
  51880.425    0.1143E-21
  51880.488    0.1177E-21
  51880.550    0.1211E-21
  51880.612    0.1194E-21
  51880.674    0.1118E-21
  51880.736    0.1059E-21
  51880.799    0.1059E-21
  51880.861    0.1059E-21
  51880.923    0.1059E-21
  51880.985    0.1084E-21
  51881.047    0.1034E-21
  51881.110    0.1017E-21
  51881.172    0.1067E-21
  51881.234    0.1151E-21
  51881.296    0.1303E-21
  51881.358    0.1397E-21
  51881.421    0.1363E-21
  51881.483    0.1354E-21
  51881.545    0.1354E-21
  51881.607    0.1268E-21
  51881.669    0.1218E-21
  51881.732    0.1226E-21
  51881.794    0.1243E-21
  51881.856    0.1311E-21
  51881.918    0.1371E-21
  51881.980    0.1388E-21
  51882.043    0.1405E-21
  51882.105    0.1405E-21
  51882.167    0.1465E-21
  51882.229    0.1561E-21
  51882.291    0.1500E-21
  51882.354    0.1370E-21
  51882.416    0.1301E-21
  51882.478    0.1225E-21
  51882.540    0.1174E-21
  51882.602    0.1149E-21
  51882.665    0.1182E-21
  51882.727    0.1275E-21
  51882.789    0.1344E-21
  51882.851    0.1395E-21
  51882.913    0.1403E-21
  51882.976    0.1335E-21
  51883.038    0.1283E-21
  51883.100    0.1258E-21
  51883.162    0.1249E-21
  51883.225    0.1292E-21
  51883.287    0.1292E-21
  51883.349    0.1334E-21
  51883.411    0.1377E-21
  51883.473    0.1317E-21
  51883.536    0.1308E-21
  51883.598    0.1360E-21
  51883.660    0.1359E-21
  51883.722    0.1385E-21
  51883.784    0.1359E-21
  51883.847    0.1316E-21
  51883.909    0.1342E-21
  51883.971    0.1359E-21
  51884.033    0.1454E-21
  51884.095    0.1445E-21
  51884.158    0.1402E-21
  51884.220    0.1367E-21
  51884.282    0.1376E-21
  51884.344    0.1445E-21
  51884.406    0.1549E-21
  51884.469    0.1628E-21
  51884.531    0.1698E-21
  51884.593    0.1734E-21
  51884.655    0.1787E-21
  51884.718    0.1787E-21
  51884.780    0.1760E-21
  51884.842    0.1769E-21
  51884.904    0.1751E-21
  51884.966    0.1733E-21
  51885.029    0.1724E-21
  51885.091    0.1724E-21
  51885.153    0.1759E-21
  51885.215    0.1750E-21
  51885.277    0.1706E-21
  51885.340    0.1644E-21
  51885.402    0.1600E-21
  51885.464    0.1547E-21
  51885.526    0.1565E-21
  51885.589    0.1530E-21
  51885.651    0.1538E-21
  51885.713    0.1538E-21
  51885.775    0.1503E-21
  51885.837    0.1486E-21
  51885.900    0.1538E-21
  51885.962    0.1625E-21
  51886.024    0.1678E-21
  51886.086    0.1696E-21
  51886.148    0.1758E-21
  51886.211    0.1830E-21
  51886.273    0.1865E-21
  51886.335    0.1910E-21
  51886.397    0.1965E-21
  51886.459    0.2047E-21
  51886.522    0.2102E-21
  51886.584    0.2167E-21
  51886.646    0.2148E-21
  51886.708    0.2065E-21
  51886.771    0.1928E-21
  51886.833    0.1892E-21
  51886.895    0.1928E-21
  51886.957    0.1991E-21
  51887.019    0.2138E-21
  51887.082    0.2381E-21
  51887.144    0.2515E-21
  51887.206    0.2515E-21
  51887.268    0.2410E-21
  51887.331    0.2353E-21
  51887.393    0.2305E-21
  51887.455    0.2268E-21
  51887.517    0.2268E-21
  51887.579    0.2315E-21
  51887.642    0.2438E-21
  51887.704    0.2552E-21
  51887.766    0.2581E-21
  51887.828    0.2533E-21
  51887.890    0.2514E-21
  51887.953    0.2552E-21
  51888.015    0.2629E-21
  51888.077    0.2727E-21
  51888.139    0.2697E-21
  51888.202    0.2668E-21
  51888.264    0.2629E-21
  51888.326    0.2551E-21
  51888.388    0.2532E-21
  51888.450    0.2609E-21
  51888.513    0.2648E-21
  51888.575    0.2726E-21
  51888.637    0.2834E-21
  51888.699    0.2943E-21
  51888.762    0.3034E-21
  51888.824    0.3135E-21
  51888.886    0.3247E-21
  51888.948    0.3361E-21
  51889.010    0.3508E-21
  51889.073    0.3624E-21
  51889.135    0.3732E-21
  51889.197    0.3917E-21
  51889.259    0.4116E-21
  51889.322    0.4285E-21
  51889.384    0.4388E-21
  51889.446    0.4411E-21
  51889.508    0.4492E-21
  51889.570    0.4597E-21
  51889.633    0.4655E-21
  51889.695    0.4679E-21
  51889.757    0.4738E-21
  51889.819    0.4857E-21
  51889.882    0.4966E-21
  51889.944    0.4990E-21
  51890.006    0.4954E-21
  51890.068    0.4917E-21
  51890.130    0.4893E-21
  51890.193    0.4869E-21
  51890.255    0.4845E-21
  51890.317    0.4845E-21
  51890.379    0.4905E-21
  51890.442    0.4917E-21
  51890.504    0.4844E-21
  51890.566    0.4761E-21
  51890.628    0.4761E-21
  51890.690    0.4737E-21
  51890.753    0.4844E-21
  51890.815    0.4989E-21
  51890.877    0.5173E-21
  51890.939    0.5348E-21
  51891.002    0.5526E-21
  51891.064    0.5590E-21
  51891.126    0.5694E-21
  51891.188    0.5812E-21
  51891.251    0.5812E-21
  51891.313    0.5825E-21
  51891.375    0.5891E-21
  51891.437    0.6144E-21
  51891.499    0.6297E-21
  51891.562    0.6504E-21
  51891.624    0.6716E-21
  51891.686    0.6816E-21
  51891.748    0.6899E-21
  51891.811    0.7070E-21
  51891.873    0.7282E-21
  51891.935    0.7516E-21
  51891.997    0.7713E-21
  51892.060    0.7948E-21
  51892.122    0.8222E-21
  51892.184    0.8478E-21
  51892.246    0.8769E-21
  51892.308    0.8944E-21
  51892.371    0.9076E-21
  51892.433    0.9210E-21
  51892.495    0.9344E-21
  51892.557    0.9604E-21
  51892.620    0.9965E-21
  51892.682    0.1027E-20
  51892.744    0.1052E-20
  51892.806    0.1071E-20
  51892.869    0.1081E-20
  51892.931    0.1105E-20
  51892.993    0.1144E-20
  51893.055    0.1191E-20
  51893.117    0.1252E-20
  51893.180    0.1312E-20
  51893.242    0.1378E-20
  51893.304    0.1440E-20
  51893.366    0.1493E-20
  51893.429    0.1532E-20
  51893.491    0.1567E-20
  51893.553    0.1596E-20
  51893.615    0.1622E-20
  51893.678    0.1654E-20
  51893.740    0.1685E-20
  51893.802    0.1712E-20
  51893.864    0.1748E-20
  51893.926    0.1793E-20
  51893.989    0.1843E-20
  51894.051    0.1878E-20
  51894.113    0.1909E-20
  51894.175    0.1938E-20
  51894.238    0.1960E-20
  51894.300    0.1976E-20
  51894.362    0.2012E-20
  51894.424    0.2050E-20
  51894.487    0.2060E-20
  51894.549    0.2057E-20
  51894.611    0.2045E-20
  51894.673    0.2039E-20
  51894.736    0.2025E-20
  51894.798    0.2008E-20
  51894.860    0.2001E-20
  51894.922    0.2007E-20
  51894.984    0.2021E-20
  51895.047    0.2025E-20
  51895.109    0.2001E-20
  51895.171    0.1988E-20
  51895.233    0.1977E-20
  51895.296    0.1961E-20
  51895.358    0.1932E-20
  51895.420    0.1889E-20
  51895.482    0.1852E-20
  51895.545    0.1815E-20
  51895.607    0.1792E-20
  51895.669    0.1778E-20
  51895.731    0.1754E-20
  51895.794    0.1733E-20
  51895.856    0.1733E-20
  51895.918    0.1722E-20
  51895.980    0.1696E-20
  51896.043    0.1659E-20
  51896.105    0.1625E-20
  51896.167    0.1590E-20
  51896.229    0.1562E-20
  51896.292    0.1541E-20
  51896.354    0.1519E-20
  51896.416    0.1484E-20
  51896.478    0.1442E-20
  51896.540    0.1412E-20
  51896.603    0.1403E-20
  51896.665    0.1407E-20
  51896.727    0.1425E-20
  51896.789    0.1446E-20
  51896.852    0.1459E-20
  51896.914    0.1460E-20
  51896.976    0.1448E-20
  51897.038    0.1427E-20
  51897.101    0.1416E-20
  51897.163    0.1406E-20
  51897.225    0.1392E-20
  51897.287    0.1380E-20
  51897.350    0.1369E-20
  51897.412    0.1347E-20
  51897.474    0.1331E-20
  51897.536    0.1323E-20
  51897.599    0.1324E-20
  51897.661    0.1319E-20
  51897.723    0.1303E-20
  51897.785    0.1281E-20
  51897.848    0.1260E-20
  51897.910    0.1260E-20
  51897.972    0.1236E-20
  51898.034    0.1214E-20
  51898.097    0.1194E-20
  51898.159    0.1166E-20
  51898.221    0.1132E-20
  51898.283    0.1104E-20
  51898.346    0.1070E-20
  51898.408    0.1052E-20
  51898.470    0.1049E-20
  51898.532    0.1040E-20
  51898.595    0.1024E-20
  51898.657    0.1001E-20
  51898.719    0.9806E-21
  51898.781    0.9551E-21
  51898.844    0.9247E-21
  51898.906    0.9038E-21
  51898.968    0.8870E-21
  51899.030    0.8681E-21
  51899.092    0.8486E-21
  51899.155    0.8228E-21
  51899.217    0.8021E-21
  51899.279    0.7851E-21
  51899.341    0.7718E-21
  51899.404    0.7528E-21
  51899.466    0.7324E-21
  51899.528    0.7125E-21
  51899.590    0.6959E-21
  51899.653    0.6871E-21
  51899.715    0.6757E-21
  51899.777    0.6605E-21
  51899.839    0.6477E-21
  51899.902    0.6392E-21
  51899.964    0.6280E-21
  51900.026    0.6132E-21
  51900.088    0.5852E-21
  51900.151    0.5733E-21
  51900.213    0.5681E-21
  51900.275    0.5616E-21
  51900.337    0.5487E-21
  51900.400    0.5385E-21
  51900.462    0.5309E-21
  51900.524    0.5221E-21
  51900.586    0.5024E-21
  51900.649    0.4902E-21
  51900.711    0.4854E-21
  51900.773    0.4854E-21
  51900.836    0.4829E-21
  51900.898    0.4722E-21
  51900.960    0.4615E-21
  51901.022    0.4522E-21
  51901.085    0.4521E-21
  51901.147    0.4533E-21
  51901.209    0.4394E-21
  51901.271    0.4256E-21
  51901.334    0.4200E-21
  51901.396    0.4143E-21
  51901.458    0.4132E-21
  51901.520    0.4177E-21
  51901.583    0.4233E-21
  51901.645    0.4256E-21
  51901.707    0.4132E-21
  51901.769    0.4075E-21
  51901.832    0.3975E-21
  51901.894    0.3865E-21
  51901.956    0.3876E-21
  51902.018    0.3800E-21
  51902.081    0.3745E-21
  51902.143    0.3724E-21
  51902.205    0.3745E-21
  51902.267    0.3788E-21
  51902.330    0.3745E-21
  51902.392    0.3648E-21
  51902.454    0.3499E-21
  51902.516    0.3331E-21
  51902.579    0.3279E-21
  51902.641    0.3310E-21
  51902.703    0.3238E-21
  51902.765    0.3115E-21
  51902.828    0.3114E-21
  51902.890    0.3176E-21
  51902.952    0.3237E-21
  51903.014    0.3247E-21
  51903.077    0.3258E-21
  51903.139    0.3237E-21
  51903.201    0.3247E-21
  51903.263    0.3247E-21
  51903.326    0.3226E-21
  51903.388    0.3247E-21
  51903.450    0.3319E-21
  51903.513    0.3309E-21
  51903.575    0.3226E-21
  51903.637    0.3195E-21
  51903.699    0.3164E-21
  51903.762    0.3133E-21
  51903.824    0.3144E-21
  51903.886    0.3123E-21
  51903.948    0.3062E-21
  51904.011    0.2941E-21
  51904.073    0.2861E-21
  51904.135    0.2931E-21
  51904.197    0.3021E-21
  51904.260    0.3051E-21
  51904.322    0.3041E-21
  51904.384    0.2991E-21
  51904.446    0.3001E-21
  51904.509    0.3021E-21
  51904.571    0.3061E-21
  51904.633    0.3051E-21
  51904.695    0.3000E-21
  51904.758    0.3041E-21
  51904.820    0.3122E-21
  51904.882    0.3061E-21
  51904.945    0.2900E-21
  51905.007    0.2810E-21
  51905.069    0.2731E-21
  51905.131    0.2712E-21
  51905.194    0.2741E-21
  51905.256    0.2721E-21
  51905.318    0.2711E-21
  51905.380    0.2750E-21
  51905.443    0.2790E-21
  51905.505    0.2829E-21
  51905.567    0.2839E-21
  51905.629    0.2789E-21
  51905.692    0.2770E-21
  51905.754    0.2760E-21
  51905.816    0.2760E-21
  51905.878    0.2710E-21
  51905.941    0.2661E-21
  51906.003    0.2691E-21
  51906.065    0.2779E-21
  51906.128    0.2818E-21
  51906.190    0.2828E-21
  51906.252    0.2828E-21
  51906.314    0.2759E-21
  51906.377    0.2739E-21
  51906.439    0.2788E-21
  51906.501    0.2798E-21
  51906.563    0.2759E-21
  51906.626    0.2739E-21
  51906.688    0.2788E-21
  51906.750    0.2837E-21
  51906.812    0.2887E-21
  51906.875    0.2907E-21
  51906.937    0.2857E-21
  51906.999    0.2719E-21
  51907.062    0.2621E-21
  51907.124    0.2553E-21
  51907.186    0.2524E-21
  51907.248    0.2514E-21
  51907.311    0.2582E-21
  51907.373    0.2669E-21
  51907.435    0.2708E-21
  51907.497    0.2689E-21
  51907.560    0.2728E-21
  51907.622    0.2737E-21
  51907.684    0.2796E-21
  51907.747    0.2826E-21
  51907.809    0.2836E-21
  51907.871    0.2786E-21
  51907.933    0.2816E-21
  51907.996    0.2935E-21
  51908.058    0.3036E-21
  51908.120    0.3036E-21
  51908.182    0.2985E-21
  51908.245    0.2925E-21
  51908.307    0.2945E-21
  51908.369    0.3005E-21
  51908.432    0.2985E-21
  51908.494    0.2945E-21
  51908.556    0.2894E-21
  51908.618    0.2864E-21
  51908.681    0.2884E-21
  51908.743    0.2914E-21
  51908.805    0.2934E-21
  51908.867    0.2974E-21
  51908.930    0.3004E-21
  51908.992    0.3034E-21
  51909.054    0.3085E-21
  51909.117    0.3105E-21
  51909.179    0.3065E-21
  51909.241    0.3004E-21
  51909.303    0.2953E-21
  51909.366    0.2923E-21
  51909.428    0.2913E-21
  51909.490    0.2973E-21
  51909.552    0.2983E-21
  51909.615    0.2973E-21
  51909.677    0.3003E-21
  51909.739    0.2993E-21
  51909.802    0.3053E-21
  51909.864    0.3114E-21
  51909.926    0.3155E-21
  51909.988    0.3165E-21
  51910.051    0.3124E-21
  51910.113    0.3033E-21
  51910.175    0.3012E-21
  51910.237    0.3093E-21
  51910.300    0.3165E-21
  51910.362    0.3175E-21
  51910.424    0.3154E-21
  51910.487    0.3124E-21
  51910.549    0.3124E-21
  51910.611    0.3195E-21
  51910.673    0.3267E-21
  51910.736    0.3277E-21
  51910.798    0.3215E-21
  51910.860    0.3205E-21
  51910.923    0.3257E-21
  51910.985    0.3319E-21
  51911.047    0.3350E-21
  51911.109    0.3423E-21
  51911.172    0.3465E-21
  51911.234    0.3475E-21
  51911.296    0.3454E-21
  51911.358    0.3412E-21
  51911.421    0.3475E-21
  51911.483    0.3581E-21
  51911.545    0.3677E-21
  51911.608    0.3753E-21
  51911.670    0.3656E-21
  51911.732    0.3656E-21
  51911.794    0.3764E-21
  51911.857    0.3753E-21
  51911.919    0.3677E-21
  51911.981    0.3731E-21
  51912.044    0.3807E-21
  51912.106    0.3796E-21
  51912.168    0.3817E-21
  51912.230    0.3883E-21
  51912.293    0.3839E-21
  51912.355    0.3828E-21
  51912.417    0.3872E-21
  51912.480    0.3960E-21
  51912.542    0.4071E-21
  51912.604    0.4138E-21
  51912.666    0.4206E-21
  51912.729    0.4217E-21
  51912.791    0.4194E-21
  51912.853    0.4240E-21
  51912.916    0.4342E-21
  51912.978    0.4400E-21
  51913.040    0.4388E-21
  51913.102    0.4376E-21
  51913.165    0.4353E-21
  51913.227    0.4399E-21
  51913.289    0.4515E-21
  51913.352    0.4633E-21
  51913.414    0.4704E-21
  51913.476    0.4727E-21
  51913.538    0.4811E-21
  51913.601    0.4823E-21
  51913.663    0.4727E-21
  51913.725    0.4656E-21
  51913.788    0.4691E-21
  51913.850    0.4798E-21
  51913.912    0.4871E-21
  51913.974    0.4907E-21
  51914.037    0.4870E-21
  51914.099    0.4870E-21
  51914.161    0.4955E-21
  51914.224    0.5016E-21
  51914.286    0.5028E-21
  51914.348    0.5053E-21
  51914.410    0.5114E-21
  51914.473    0.5264E-21
  51914.535    0.5466E-21
  51914.597    0.5595E-21
  51914.660    0.5647E-21
  51914.722    0.5725E-21
  51914.784    0.5725E-21
  51914.846    0.5633E-21
  51914.909    0.5620E-21
  51914.971    0.5672E-21
  51915.033    0.5764E-21
  51915.096    0.5910E-21
  51915.158    0.6058E-21
  51915.220    0.6139E-21
  51915.282    0.6221E-21
  51915.345    0.6290E-21
  51915.407    0.6359E-21
  51915.469    0.6237E-21
  51915.532    0.6333E-21
  51915.594    0.6392E-21
  51915.656    0.6454E-21
  51915.718    0.6597E-21
  51915.781    0.6845E-21
  51915.843    0.7002E-21
  51915.905    0.7141E-21
  51915.968    0.7230E-21
  51916.030    0.7255E-21
  51916.092    0.7232E-21
  51916.155    0.7235E-21
  51916.217    0.7370E-21
  51916.279    0.7515E-21
  51916.341    0.7671E-21
  51916.404    0.7753E-21
  51916.466    0.7882E-21
  51916.528    0.8032E-21
  51916.591    0.8204E-21
  51916.653    0.8345E-21
  51916.715    0.8541E-21
  51916.777    0.8704E-21
  51916.840    0.8812E-21
  51916.902    0.8893E-21
  51916.964    0.8993E-21
  51917.027    0.9215E-21
  51917.089    0.9444E-21
  51917.151    0.9601E-21
  51917.214    0.9627E-21
  51917.276    0.9741E-21
  51917.338    0.9977E-21
  51917.400    0.1015E-20
  51917.463    0.1042E-20
  51917.525    0.1073E-20
  51917.587    0.1108E-20
  51917.650    0.1138E-20
  51917.712    0.1178E-20
  51917.774    0.1225E-20
  51917.836    0.1255E-20
  51917.899    0.1273E-20
  51917.961    0.1277E-20
  51918.023    0.1305E-20
  51918.086    0.1333E-20
  51918.148    0.1360E-20
  51918.210    0.1391E-20
  51918.273    0.1421E-20
  51918.335    0.1468E-20
  51918.397    0.1514E-20
  51918.459    0.1559E-20
  51918.522    0.1605E-20
  51918.584    0.1649E-20
  51918.646    0.1694E-20
  51918.709    0.1741E-20
  51918.771    0.1769E-20
  51918.833    0.1807E-20
  51918.896    0.1854E-20
  51918.958    0.1910E-20
  51919.020    0.1985E-20
  51919.082    0.2056E-20
  51919.145    0.2122E-20
  51919.207    0.2195E-20
  51919.269    0.2372E-20
  51919.332    0.2424E-20
  51919.394    0.2477E-20
  51919.456    0.2540E-20
  51919.519    0.2604E-20
  51919.581    0.2649E-20
  51919.643    0.2702E-20
  51919.705    0.2790E-20
  51919.768    0.2862E-20
  51919.830    0.2967E-20
  51919.892    0.3073E-20
  51919.955    0.3177E-20
  51920.017    0.3252E-20
  51920.079    0.3334E-20
  51920.142    0.3419E-20
  51920.204    0.3496E-20
  51920.266    0.3598E-20
  51920.328    0.3676E-20
  51920.391    0.3754E-20
  51920.453    0.3832E-20
  51920.515    0.3916E-20
  51920.578    0.4019E-20
  51920.640    0.4064E-20
  51920.702    0.4093E-20
  51920.765    0.4146E-20
  51920.827    0.4206E-20
  51920.889    0.4246E-20
  51920.952    0.4252E-20
  51921.014    0.4255E-20
  51921.076    0.4228E-20
  51921.138    0.4209E-20
  51921.201    0.4210E-20
  51921.263    0.4222E-20
  51921.325    0.4228E-20
  51921.388    0.4214E-20
  51921.450    0.4194E-20
  51921.512    0.4149E-20
  51921.575    0.4097E-20
  51921.637    0.4063E-20
  51921.699    0.4064E-20
  51921.761    0.4045E-20
  51921.824    0.4059E-20
  51921.886    0.4041E-20
  51921.948    0.3986E-20
  51922.011    0.3909E-20
  51922.073    0.3879E-20
  51922.135    0.3871E-20
  51922.198    0.3849E-20
  51922.260    0.3834E-20
  51922.322    0.3822E-20
  51922.385    0.3819E-20
  51922.447    0.3804E-20
  51922.509    0.3777E-20
  51922.571    0.3772E-20
  51922.634    0.3732E-20
  51922.696    0.3672E-20
  51922.758    0.3627E-20
  51922.821    0.3591E-20
  51922.883    0.3556E-20
  51922.945    0.3543E-20
  51923.008    0.3502E-20
  51923.070    0.3456E-20
  51923.132    0.3405E-20
  51923.195    0.3367E-20
  51923.257    0.3319E-20
  51923.319    0.3277E-20
  51923.382    0.3275E-20
  51923.444    0.3255E-20
  51923.506    0.3222E-20
  51923.568    0.3176E-20
  51923.631    0.3136E-20
  51923.693    0.3091E-20
  51923.755    0.3037E-20
  51923.818    0.2946E-20
  51923.880    0.2872E-20
  51923.942    0.2814E-20
  51924.005    0.2734E-20
  51924.067    0.2664E-20
  51924.129    0.2617E-20
  51924.192    0.2561E-20
  51924.254    0.2496E-20
  51924.316    0.2538E-20
  51924.379    0.2475E-20
  51924.441    0.2425E-20
  51924.503    0.2371E-20
  51924.565    0.2300E-20
  51924.628    0.2230E-20
  51924.690    0.2162E-20
  51924.752    0.2110E-20
  51924.815    0.2051E-20
  51924.877    0.1994E-20
  51924.939    0.1938E-20
  51925.002    0.1895E-20
  51925.064    0.1846E-20
  51925.126    0.1793E-20
  51925.189    0.1749E-20
  51925.251    0.1716E-20
  51925.313    0.1685E-20
  51925.376    0.1645E-20
  51925.438    0.1603E-20
  51925.500    0.1563E-20
  51925.563    0.1516E-20
  51925.625    0.1472E-20
  51925.687    0.1438E-20
  51925.749    0.1406E-20
  51925.812    0.1384E-20
  51925.874    0.1372E-20
  51925.936    0.1347E-20
  51925.999    0.1321E-20
  51926.061    0.1301E-20
  51926.123    0.1270E-20
  51926.186    0.1253E-20
  51926.248    0.1239E-20
  51926.310    0.1222E-20
  51926.373    0.1205E-20
  51926.435    0.1187E-20
  51926.497    0.1159E-20
  51926.560    0.1129E-20
  51926.622    0.1092E-20
  51926.684    0.1062E-20
  51926.747    0.1039E-20
  51926.809    0.1022E-20
  51926.871    0.1005E-20
  51926.934    0.9925E-21
  51926.996    0.9824E-21
  51927.058    0.9635E-21
  51927.120    0.9426E-21
  51927.183    0.9246E-21
  51927.245    0.9117E-21
  51927.307    0.9012E-21
  51927.370    0.8864E-21
  51927.432    0.8704E-21
  51927.494    0.8592E-21
  51927.557    0.8448E-21
  51927.619    0.8291E-21
  51927.681    0.8187E-21
  51927.744    0.8063E-21
  51927.806    0.7954E-21
  51927.868    0.7866E-21
  51927.931    0.7801E-21
  51927.993    0.7790E-21
  51928.055    0.7788E-21
  51928.118    0.7774E-21
  51928.180    0.7705E-21
  51928.242    0.7488E-21
  51928.305    0.7400E-21
  51928.367    0.7438E-21
  51928.429    0.7486E-21
  51928.492    0.7455E-21
  51928.554    0.7488E-21
  51928.616    0.7508E-21
  51928.679    0.7387E-21
  51928.741    0.7220E-21
  51928.803    0.7080E-21
  51928.866    0.6895E-21
  51928.928    0.6793E-21
  51928.990    0.6855E-21
  51929.053    0.6922E-21
  51929.115    0.7112E-21
  51929.177    0.7344E-21
  51929.239    0.7377E-21
  51929.302    0.7321E-21
  51929.364    0.7257E-21
  51929.426    0.7102E-21
  51929.489    0.7026E-21
  51929.551    0.6849E-21
  51929.613    0.6705E-21
  51929.676    0.6705E-21
  51929.738    0.6670E-21
  51929.800    0.6636E-21
  51929.863    0.6582E-21
  51929.925    0.6506E-21
  51929.987    0.6522E-21
  51930.050    0.6590E-21
  51930.112    0.6578E-21
  51930.174    0.6507E-21
  51930.237    0.6381E-21
  51930.299    0.6273E-21
  51930.361    0.6222E-21
  51930.424    0.6286E-21
  51930.486    0.6408E-21
  51930.548    0.6447E-21
  51930.611    0.6432E-21
  51930.673    0.6451E-21
  51930.735    0.6454E-21
  51930.798    0.6460E-21
  51930.860    0.6498E-21
  51930.922    0.6526E-21
  51930.985    0.6555E-21
  51931.047    0.6645E-21
  51931.109    0.6628E-21
  51931.172    0.6523E-21
  51931.234    0.6443E-21
  51931.296    0.6418E-21
  51931.359    0.6473E-21
  51931.421    0.6485E-21
  51931.483    0.6429E-21
  51931.546    0.6424E-21
  51931.608    0.6364E-21
  51931.670    0.6335E-21
  51931.733    0.6385E-21
  51931.795    0.6330E-21
  51931.857    0.6215E-21
  51931.920    0.6207E-21
  51931.982    0.6288E-21
  51932.044    0.6379E-21
  51932.107    0.6489E-21
  51932.169    0.6605E-21
  51932.231    0.6642E-21
  51932.294    0.6683E-21
  51932.356    0.6757E-21
  51932.418    0.6804E-21
  51932.481    0.6837E-21
  51932.543    0.6909E-21
  51932.605    0.6856E-21
  51932.668    0.6717E-21
  51932.730    0.6687E-21
  51932.792    0.6739E-21
  51932.855    0.6759E-21
  51932.917    0.6793E-21
  51932.979    0.6845E-21
  51933.042    0.6837E-21
  51933.104    0.6927E-21
  51933.166    0.7080E-21
  51933.229    0.7146E-21
  51933.291    0.7237E-21
  51933.353    0.7270E-21
  51933.416    0.7288E-21
  51933.478    0.7275E-21
  51933.540    0.7247E-21
  51933.603    0.7259E-21
  51933.665    0.7274E-21
  51933.727    0.7177E-21
  51933.790    0.7073E-21
  51933.852    0.7126E-21
  51933.914    0.7284E-21
  51933.977    0.7480E-21
  51934.039    0.7647E-21
  51934.101    0.7791E-21
  51934.164    0.7886E-21
  51934.226    0.7862E-21
  51934.288    0.7858E-21
  51934.351    0.7866E-21
  51934.413    0.7905E-21
  51934.475    0.7954E-21
  51934.538    0.8188E-21
  51934.600    0.8387E-21
  51934.663    0.8477E-21
  51934.725    0.8553E-21
  51934.787    0.8528E-21
  51934.850    0.8543E-21
  51934.912    0.8585E-21
  51934.974    0.8620E-21
  51935.037    0.8681E-21
  51935.099    0.8687E-21
  51935.161    0.8709E-21
  51935.224    0.8690E-21
  51935.286    0.8799E-21
  51935.348    0.8957E-21
  51935.411    0.9071E-21
  51935.473    0.9169E-21
  51935.535    0.9180E-21
  51935.598    0.9245E-21
  51935.660    0.9330E-21
  51935.722    0.9391E-21
  51935.785    0.9463E-21
  51935.847    0.9644E-21
  51935.909    0.9848E-21
  51935.972    0.1007E-20
  51936.034    0.1025E-20
  51936.096    0.1051E-20
  51936.159    0.1078E-20
  51936.221    0.1105E-20
  51936.283    0.1128E-20
  51936.346    0.1144E-20
  51936.408    0.1154E-20
  51936.470    0.1164E-20
  51936.533    0.1169E-20
  51936.595    0.1169E-20
  51936.657    0.1179E-20
  51936.720    0.1192E-20
  51936.782    0.1202E-20
  51936.845    0.1213E-20
  51936.907    0.1234E-20
  51936.969    0.1265E-20
  51937.032    0.1263E-20
  51937.094    0.1301E-20
  51937.156    0.1337E-20
  51937.219    0.1354E-20
  51937.281    0.1367E-20
  51937.343    0.1382E-20
  51937.406    0.1403E-20
  51937.468    0.1427E-20
  51937.530    0.1454E-20
  51937.593    0.1489E-20
  51937.655    0.1525E-20
  51937.717    0.1558E-20
  51937.780    0.1583E-20
  51937.842    0.1597E-20
  51937.904    0.1622E-20
  51937.967    0.1649E-20
  51938.029    0.1685E-20
  51938.091    0.1737E-20
  51938.154    0.1793E-20
  51938.216    0.1836E-20
  51938.279    0.1872E-20
  51938.341    0.1921E-20
  51938.403    0.1965E-20
  51938.466    0.2016E-20
  51938.528    0.2034E-20
  51938.590    0.2084E-20
  51938.653    0.2144E-20
  51938.715    0.2194E-20
  51938.777    0.2222E-20
  51938.840    0.2379E-20
  51938.902    0.2444E-20
  51938.964    0.2505E-20
  51939.027    0.2575E-20
  51939.089    0.2660E-20
  51939.151    0.2750E-20
  51939.214    0.2834E-20
  51939.276    0.2937E-20
  51939.339    0.3010E-20
  51939.401    0.3053E-20
  51939.463    0.3100E-20
  51939.526    0.3153E-20
  51939.588    0.3230E-20
  51939.650    0.3352E-20
  51939.713    0.3484E-20
  51939.775    0.3612E-20
  51939.837    0.3713E-20
  51939.900    0.3797E-20
  51939.962    0.3912E-20
  51940.024    0.4061E-20
  51940.087    0.4266E-20
  51940.149    0.4361E-20
  51940.211    0.4656E-20
  51940.274    0.4783E-20
  51940.336    0.4884E-20
  51940.399    0.4998E-20
  51940.461    0.5191E-20
  51940.523    0.5362E-20
  51940.586    0.5483E-20
  51940.648    0.5616E-20
  51940.710    0.5773E-20
  51940.773    0.5910E-20
  51940.835    0.6012E-20
  51940.897    0.6106E-20
  51940.960    0.6210E-20
  51941.022    0.6301E-20
  51941.084    0.6427E-20
  51941.147    0.6534E-20
  51941.209    0.6684E-20
  51941.272    0.6800E-20
  51941.334    0.6882E-20
  51941.396    0.6970E-20
  51941.459    0.7040E-20
  51941.521    0.7111E-20
  51941.583    0.7201E-20
  51941.646    0.7229E-20
  51941.708    0.7229E-20
  51941.770    0.7219E-20
  51941.833    0.7211E-20
  51941.895    0.7230E-20
  51941.957    0.7285E-20
  51942.020    0.7370E-20
  51942.082    0.7404E-20
  51942.145    0.7418E-20
  51942.207    0.7440E-20
  51942.269    0.7377E-20
  51942.332    0.7343E-20
  51942.394    0.7318E-20
  51942.456    0.7296E-20
  51942.519    0.7246E-20
  51942.581    0.7183E-20
  51942.643    0.7154E-20
  51942.706    0.7185E-20
  51942.768    0.7200E-20
  51942.831    0.7195E-20
  51942.893    0.7112E-20
  51942.955    0.7021E-20
  51943.018    0.6930E-20
  51943.080    0.6882E-20
  51943.142    0.6863E-20
  51943.205    0.6881E-20
  51943.267    0.6867E-20
  51943.329    0.6797E-20
  51943.392    0.6743E-20
  51943.454    0.6691E-20
  51943.516    0.6578E-20
  51943.579    0.6464E-20
  51943.641    0.6391E-20
  51943.704    0.6310E-20
  51943.766    0.6152E-20
  51943.828    0.6021E-20
  51943.891    0.5905E-20
  51943.953    0.5824E-20
  51944.015    0.5726E-20
  51944.078    0.5572E-20
  51944.140    0.5353E-20
  51944.203    0.5110E-20
  51944.265    0.4922E-20
  51944.327    0.4962E-20
  51944.390    0.4856E-20
  51944.452    0.4733E-20
  51944.514    0.4604E-20
  51944.577    0.4456E-20
  51944.639    0.4354E-20
  51944.701    0.4276E-20
  51944.764    0.4186E-20
  51944.826    0.4103E-20
  51944.889    0.4025E-20
  51944.951    0.3999E-20
  51945.013    0.3880E-20
  51945.076    0.3750E-20
  51945.138    0.3618E-20
  51945.200    0.3514E-20
  51945.263    0.3414E-20
  51945.325    0.3322E-20
  51945.387    0.3238E-20
  51945.450    0.3163E-20
  51945.512    0.3098E-20
  51945.575    0.3024E-20
  51945.637    0.2945E-20
  51945.699    0.2831E-20
  51945.762    0.2712E-20
  51945.824    0.2637E-20
  51945.886    0.2580E-20
  51945.949    0.2511E-20
  51946.011    0.2452E-20
  51946.074    0.2409E-20
  51946.136    0.2359E-20
  51946.198    0.2327E-20
  51946.261    0.2294E-20
  51946.323    0.2237E-20
  51946.385    0.2164E-20
  51946.448    0.2116E-20
  51946.510    0.2087E-20
  51946.573    0.2046E-20
  51946.635    0.2051E-20
  51946.697    0.2017E-20
  51946.760    0.1986E-20
  51946.822    0.1963E-20
  51946.884    0.1929E-20
  51946.947    0.1875E-20
  51947.009    0.1831E-20
  51947.071    0.1790E-20
  51947.134    0.1759E-20
  51947.196    0.1736E-20
  51947.259    0.1719E-20
  51947.321    0.1701E-20
  51947.383    0.1675E-20
  51947.446    0.1645E-20
  51947.508    0.1616E-20
  51947.570    0.1585E-20
  51947.633    0.1578E-20
  51947.695    0.1581E-20
  51947.758    0.1582E-20
  51947.820    0.1582E-20
  51947.882    0.1571E-20
  51947.945    0.1562E-20
  51948.007    0.1537E-20
  51948.069    0.1505E-20
  51948.132    0.1496E-20
  51948.194    0.1492E-20
  51948.257    0.1465E-20
  51948.319    0.1430E-20
  51948.381    0.1412E-20
  51948.444    0.1397E-20
  51948.506    0.1390E-20
  51948.568    0.1391E-20
  51948.631    0.1396E-20
  51948.693    0.1388E-20
  51948.756    0.1377E-20
  51948.818    0.1366E-20
  51948.880    0.1374E-20
  51948.943    0.1368E-20
  51949.005    0.1355E-20
  51949.068    0.1339E-20
  51949.130    0.1313E-20
  51949.192    0.1299E-20
  51949.255    0.1292E-20
  51949.317    0.1291E-20
  51949.379    0.1291E-20
  51949.442    0.1291E-20
  51949.504    0.1294E-20
  51949.567    0.1307E-20
  51949.629    0.1318E-20
  51949.691    0.1327E-20
  51949.754    0.1328E-20
  51949.816    0.1338E-20
  51949.878    0.1334E-20
  51949.941    0.1317E-20
  51950.003    0.1309E-20
  51950.066    0.1299E-20
  51950.128    0.1302E-20
  51950.190    0.1309E-20
  51950.253    0.1309E-20
  51950.315    0.1308E-20
  51950.377    0.1313E-20
  51950.440    0.1336E-20
  51950.502    0.1356E-20
  51950.565    0.1377E-20
  51950.627    0.1393E-20
  51950.689    0.1406E-20
  51950.752    0.1409E-20
  51950.814    0.1407E-20
  51950.877    0.1406E-20
  51950.939    0.1406E-20
  51951.001    0.1410E-20
  51951.064    0.1424E-20
  51951.126    0.1441E-20
  51951.188    0.1450E-20
  51951.251    0.1461E-20
  51951.313    0.1466E-20
  51951.376    0.1479E-20
  51951.438    0.1505E-20
  51951.500    0.1515E-20
  51951.563    0.1519E-20
  51951.625    0.1539E-20
  51951.688    0.1586E-20
  51951.750    0.1619E-20
  51951.812    0.1641E-20
  51951.875    0.1659E-20
  51951.937    0.1679E-20
  51951.999    0.1692E-20
  51952.062    0.1699E-20
  51952.124    0.1713E-20
  51952.187    0.1724E-20
  51952.249    0.1755E-20
  51952.311    0.1763E-20
  51952.374    0.1752E-20
  51952.436    0.1765E-20
  51952.499    0.1787E-20
  51952.561    0.1809E-20
  51952.623    0.1839E-20
  51952.686    0.1889E-20
  51952.748    0.1935E-20
  51952.810    0.1979E-20
  51952.873    0.2013E-20
  51952.935    0.2044E-20
  51952.998    0.2056E-20
  51953.060    0.2089E-20
  51953.122    0.2140E-20
  51953.185    0.2176E-20
  51953.247    0.2197E-20
  51953.310    0.2323E-20
  51953.372    0.2371E-20
  51953.434    0.2435E-20
  51953.497    0.2496E-20
  51953.559    0.2541E-20
  51953.622    0.2593E-20
  51953.684    0.2647E-20
  51953.746    0.2675E-20
  51953.809    0.2712E-20
  51953.871    0.2753E-20
  51953.933    0.2801E-20
  51953.996    0.2883E-20
  51954.058    0.2969E-20
  51954.121    0.3048E-20
  51954.183    0.3123E-20
  51954.245    0.3181E-20
  51954.308    0.3280E-20
  51954.370    0.3397E-20
  51954.433    0.3493E-20
  51954.495    0.3584E-20
  51954.557    0.3674E-20
  51954.620    0.3740E-20
  51954.682    0.3811E-20
  51954.745    0.3906E-20
  51954.807    0.4025E-20
  51954.869    0.4166E-20
  51954.932    0.4359E-20
  51954.994    0.4495E-20
  51955.057    0.4706E-20
  51955.119    0.4741E-20
  51955.181    0.4806E-20
  51955.244    0.4922E-20
  51955.306    0.5089E-20
  51955.369    0.5304E-20
  51955.431    0.5510E-20
  51955.493    0.5714E-20
  51955.556    0.5878E-20
  51955.618    0.6030E-20
  51955.680    0.6188E-20
  51955.743    0.6343E-20
  51955.805    0.6506E-20
  51955.868    0.6690E-20
  51955.930    0.6807E-20
  51955.992    0.6929E-20
  51956.055    0.7040E-20
  51956.117    0.7220E-20
  51956.180    0.7422E-20
  51956.242    0.7600E-20
  51956.304    0.7765E-20
  51956.367    0.7940E-20
  51956.429    0.8099E-20
  51956.492    0.8272E-20
  51956.554    0.8571E-20
  51956.616    0.8935E-20
  51956.679    0.9249E-20
  51956.741    0.9420E-20
  51956.804    0.9520E-20
  51956.866    0.9441E-20
  51956.928    0.9489E-20
  51956.991    0.9629E-20
  51957.053    0.9808E-20
  51957.116    0.9912E-20
  51957.178    0.9899E-20
  51957.240    0.9856E-20
  51957.303    0.9900E-20
  51957.365    0.9949E-20
  51957.428    0.1007E-19
  51957.490    0.1012E-19
  51957.552    0.1012E-19
  51957.615    0.1018E-19
  51957.677    0.1016E-19
  51957.740    0.1003E-19
  51957.802    0.9881E-20
  51957.864    0.9727E-20
  51957.927    0.9598E-20
  51957.989    0.9592E-20
  51958.052    0.9536E-20
  51958.114    0.9624E-20
  51958.176    0.9475E-20
  51958.239    0.9329E-20
  51958.301    0.9231E-20
  51958.364    0.9196E-20
  51958.426    0.9151E-20
  51958.488    0.9025E-20
  51958.551    0.8789E-20
  51958.613    0.8523E-20
  51958.676    0.8249E-20
  51958.738    0.8057E-20
  51958.800    0.7941E-20
  51958.863    0.7795E-20
  51958.925    0.7602E-20
  51958.988    0.7419E-20
  51959.050    0.7266E-20
  51959.112    0.7158E-20
  51959.175    0.7017E-20
  51959.237    0.6803E-20
  51959.300    0.6622E-20
  51959.362    0.6448E-20
  51959.424    0.6239E-20
  51959.487    0.6023E-20
  51959.549    0.5812E-20
  51959.612    0.5647E-20
  51959.674    0.5511E-20
  51959.737    0.5382E-20
  51959.799    0.5270E-20
  51959.861    0.5210E-20
  51959.924    0.5149E-20
  51959.986    0.5023E-20
  51960.049    0.4846E-20
  51960.111    0.4710E-20
  51960.173    0.4597E-20
  51960.236    0.4505E-20
  51960.298    0.4445E-20
  51960.361    0.4351E-20
  51960.423    0.4234E-20
  51960.485    0.4131E-20
  51960.548    0.4057E-20
  51960.610    0.4088E-20
  51960.673    0.4028E-20
  51960.735    0.3927E-20
  51960.797    0.3822E-20
  51960.860    0.3704E-20
  51960.922    0.3610E-20
  51960.985    0.3543E-20
  51961.047    0.3479E-20
  51961.109    0.3425E-20
  51961.172    0.3379E-20
  51961.234    0.3311E-20
  51961.297    0.3258E-20
  51961.359    0.3195E-20
  51961.422    0.3155E-20
  51961.484    0.3121E-20
  51961.546    0.3106E-20
  51961.609    0.3092E-20
  51961.671    0.3072E-20
  51961.734    0.3072E-20
  51961.796    0.3047E-20
  51961.858    0.3031E-20
  51961.921    0.3000E-20
  51961.983    0.2964E-20
  51962.046    0.2916E-20
  51962.108    0.2874E-20
  51962.170    0.2845E-20
  51962.233    0.2838E-20
  51962.295    0.2836E-20
  51962.358    0.2832E-20
  51962.420    0.2823E-20
  51962.483    0.2825E-20
  51962.545    0.2842E-20
  51962.607    0.2850E-20
  51962.670    0.2860E-20
  51962.732    0.2851E-20
  51962.795    0.2849E-20
  51962.857    0.2859E-20
  51962.919    0.2872E-20
  51962.982    0.2879E-20
  51963.044    0.2893E-20
  51963.107    0.2912E-20
  51963.169    0.2962E-20
  51963.231    0.3003E-20
  51963.294    0.3031E-20
  51963.356    0.3040E-20
  51963.419    0.3038E-20
  51963.481    0.3070E-20
  51963.544    0.3113E-20
  51963.606    0.3164E-20
  51963.668    0.3226E-20
  51963.731    0.3268E-20
  51963.793    0.3304E-20
  51963.856    0.3338E-20
  51963.918    0.3367E-20
  51963.980    0.3404E-20
  51964.043    0.3458E-20
  51964.105    0.3512E-20
  51964.168    0.3565E-20
  51964.230    0.3623E-20
  51964.293    0.3664E-20
  51964.355    0.3687E-20
  51964.417    0.3732E-20
  51964.480    0.3823E-20
  51964.542    0.3913E-20
  51964.605    0.4025E-20
  51964.667    0.4180E-20
  51964.730    0.4394E-20
  51964.792    0.4483E-20
  51964.854    0.4550E-20
  51964.917    0.4693E-20
  51964.979    0.4753E-20
  51965.042    0.4865E-20
  51965.104    0.4983E-20
  51965.166    0.5073E-20
  51965.229    0.5209E-20
  51965.291    0.5319E-20
  51965.354    0.5475E-20
  51965.416    0.5623E-20
  51965.479    0.5771E-20
  51965.541    0.5932E-20
  51965.603    0.6072E-20
  51965.666    0.6158E-20
  51965.728    0.6279E-20
  51965.791    0.6433E-20
  51965.853    0.6603E-20
  51965.915    0.6784E-20
  51965.978    0.6993E-20
  51966.040    0.7157E-20
  51966.103    0.7268E-20
  51966.165    0.7400E-20
  51966.228    0.7546E-20
  51966.290    0.7655E-20
  51966.352    0.7760E-20
  51966.415    0.7913E-20
  51966.477    0.8124E-20
  51966.540    0.8322E-20
  51966.602    0.8547E-20
  51966.665    0.9075E-20
  51966.727    0.9108E-20
  51966.789    0.8867E-20
  51966.852    0.8935E-20
  51966.914    0.9034E-20
  51966.977    0.9092E-20
  51967.039    0.9132E-20
  51967.102    0.9171E-20
  51967.164    0.9148E-20
  51967.226    0.9102E-20
  51967.289    0.9083E-20
  51967.351    0.9080E-20
  51967.414    0.9071E-20
  51967.476    0.9054E-20
  51967.539    0.8992E-20
  51967.601    0.8965E-20
  51967.663    0.8928E-20
  51967.726    0.8919E-20
  51967.788    0.8851E-20
  51967.851    0.8813E-20
  51967.913    0.8730E-20
  51967.976    0.8578E-20
  51968.038    0.8433E-20
  51968.100    0.8291E-20
  51968.163    0.8175E-20
  51968.225    0.8161E-20
  51968.288    0.8045E-20
  51968.350    0.7964E-20
  51968.412    0.7881E-20
  51968.475    0.7753E-20
  51968.537    0.7605E-20
  51968.600    0.7472E-20
  51968.662    0.7330E-20
  51968.725    0.7256E-20
  51968.787    0.7240E-20
  51968.850    0.7198E-20
  51968.912    0.7109E-20
  51968.974    0.7024E-20
  51969.037    0.6960E-20
  51969.099    0.6910E-20
  51969.162    0.6861E-20
  51969.224    0.6772E-20
  51969.287    0.6671E-20
  51969.349    0.6623E-20
  51969.411    0.6561E-20
  51969.474    0.6533E-20
  51969.536    0.6518E-20
  51969.599    0.6493E-20
  51969.661    0.6462E-20
  51969.724    0.6391E-20
  51969.786    0.6359E-20
  51969.848    0.6328E-20
  51969.911    0.6320E-20
  51969.973    0.6311E-20
  51970.036    0.6316E-20
  51970.098    0.6305E-20
  51970.161    0.6236E-20
  51970.223    0.6146E-20
  51970.285    0.6059E-20
  51970.348    0.5985E-20
  51970.410    0.5952E-20
  51970.473    0.5943E-20
  51970.535    0.5956E-20
  51970.598    0.5992E-20
  51970.660    0.6010E-20
  51970.722    0.5986E-20
  51970.785    0.5923E-20
  51970.847    0.5842E-20
  51970.910    0.5727E-20
  51970.972    0.5663E-20
  51971.035    0.5608E-20
  51971.097    0.5583E-20
  51971.160    0.5589E-20
  51971.222    0.5579E-20
  51971.284    0.5532E-20
  51971.347    0.5442E-20
  51971.409    0.5380E-20
  51971.472    0.5284E-20
  51971.534    0.5120E-20
  51971.597    0.5023E-20
  51971.659    0.4922E-20
  51971.721    0.4971E-20
  51971.784    0.4835E-20
  51971.846    0.4735E-20
  51971.909    0.4651E-20
  51971.971    0.4582E-20
  51972.034    0.4501E-20
  51972.096    0.4418E-20
  51972.158    0.4362E-20
  51972.221    0.4276E-20
  51972.283    0.4155E-20
  51972.346    0.4049E-20
  51972.408    0.3916E-20
  51972.471    0.3818E-20
  51972.533    0.3732E-20
  51972.596    0.3653E-20
  51972.658    0.3603E-20
  51972.720    0.3535E-20
  51972.783    0.3469E-20
  51972.845    0.3447E-20
  51972.908    0.3406E-20
  51972.970    0.3317E-20
  51973.033    0.3221E-20
  51973.095    0.3152E-20
  51973.158    0.3069E-20
  51973.220    0.2962E-20
  51973.282    0.2893E-20
  51973.345    0.2848E-20
  51973.407    0.2795E-20
  51973.470    0.2730E-20
  51973.532    0.2675E-20
  51973.595    0.2601E-20
  51973.657    0.2533E-20
  51973.720    0.2452E-20
  51973.782    0.2427E-20
  51973.844    0.2383E-20
  51973.907    0.2338E-20
  51973.969    0.2297E-20
  51974.032    0.2242E-20
  51974.094    0.2172E-20
  51974.157    0.2093E-20
  51974.219    0.2027E-20
  51974.281    0.1964E-20
  51974.344    0.1917E-20
  51974.406    0.1878E-20
  51974.469    0.1844E-20
  51974.531    0.1805E-20
  51974.594    0.1753E-20
  51974.656    0.1709E-20
  51974.719    0.1661E-20
  51974.781    0.1625E-20
  51974.843    0.1594E-20
  51974.906    0.1561E-20
  51974.968    0.1521E-20
  51975.031    0.1472E-20
  51975.093    0.1442E-20
  51975.156    0.1413E-20
  51975.218    0.1387E-20
  51975.281    0.1363E-20
  51975.343    0.1334E-20
  51975.406    0.1308E-20
  51975.468    0.1281E-20
  51975.530    0.1273E-20
  51975.593    0.1249E-20
  51975.655    0.1226E-20
  51975.718    0.1208E-20
  51975.780    0.1187E-20
  51975.843    0.1160E-20
  51975.905    0.1127E-20
  51975.968    0.1103E-20
  51976.030    0.1072E-20
  51976.092    0.1053E-20
  51976.155    0.1031E-20
  51976.217    0.1014E-20
  51976.280    0.1001E-20
  51976.342    0.9853E-21
  51976.405    0.9707E-21
  51976.467    0.9501E-21
  51976.530    0.9321E-21
  51976.592    0.9142E-21
  51976.654    0.9094E-21
  51976.717    0.9005E-21
  51976.779    0.8919E-21
  51976.842    0.8777E-21
  51976.904    0.8583E-21
  51976.967    0.8417E-21
  51977.029    0.8241E-21
  51977.092    0.8201E-21
  51977.154    0.8207E-21
  51977.217    0.8127E-21
  51977.279    0.7931E-21
  51977.341    0.7808E-21
  51977.404    0.7633E-21
  51977.466    0.7484E-21
  51977.529    0.7362E-21
  51977.591    0.7227E-21
  51977.654    0.7142E-21
  51977.716    0.7149E-21
  51977.779    0.7177E-21
  51977.841    0.7113E-21
  51977.903    0.7043E-21
  51977.966    0.6914E-21
  51978.028    0.6824E-21
  51978.091    0.6812E-21
  51978.153    0.6683E-21
  51978.216    0.6599E-21
  51978.278    0.6412E-21
  51978.341    0.6116E-21
  51978.403    0.5831E-21
  51978.466    0.5764E-21
  51978.528    0.5711E-21
  51978.590    0.5671E-21
  51978.653    0.5566E-21
  51978.715    0.5475E-21
  51978.778    0.5398E-21
  51978.840    0.5347E-21
  51978.903    0.5423E-21
  51978.965    0.5501E-21
  51979.028    0.5579E-21
  51979.090    0.5644E-21
  51979.153    0.5566E-21
  51979.215    0.5436E-21
  51979.278    0.5321E-21
  51979.340    0.5119E-21
  51979.402    0.4982E-21
  51979.465    0.4945E-21
  51979.527    0.4970E-21
  51979.590    0.4957E-21
  51979.652    0.4945E-21
  51979.715    0.4884E-21
  51979.777    0.4750E-21
  51979.840    0.4630E-21
  51979.902    0.4524E-21
  51979.965    0.4430E-21
  51980.027    0.4418E-21
  51980.089    0.4406E-21
  51980.152    0.4383E-21
  51980.214    0.4325E-21
  51980.277    0.4232E-21
  51980.339    0.4164E-21
  51980.402    0.4073E-21
  51980.464    0.3961E-21
  51980.527    0.3905E-21
  51980.589    0.3838E-21
  51980.652    0.3838E-21
  51980.714    0.3816E-21
  51980.777    0.3772E-21
  51980.839    0.3871E-21
  51980.901    0.3982E-21
  51980.964    0.4050E-21
  51981.026    0.4061E-21
  51981.089    0.4049E-21
  51981.151    0.3960E-21
  51981.214    0.3870E-21
  51981.276    0.3793E-21
  51981.339    0.3804E-21
  51981.401    0.3926E-21
  51981.464    0.3970E-21
  51981.526    0.3937E-21
  51981.589    0.3837E-21
  51981.651    0.3738E-21
  51981.713    0.3607E-21
  51981.776    0.3500E-21
  51981.838    0.3468E-21
  51981.901    0.3500E-21
  51981.963    0.3521E-21
  51982.026    0.3532E-21
  51982.088    0.3478E-21
  51982.151    0.3435E-21
  51982.213    0.3403E-21
  51982.276    0.3309E-21
  51982.338    0.3214E-21
  51982.401    0.3142E-21
  51982.463    0.3131E-21
  51982.525    0.3121E-21
  51982.588    0.3111E-21
  51982.650    0.3111E-21
  51982.713    0.3110E-21
  51982.775    0.3172E-21
  51982.838    0.3172E-21
  51982.900    0.3079E-21
  51982.963    0.2957E-21
  51983.025    0.2886E-21
  51983.088    0.2886E-21
  51983.150    0.2956E-21
  51983.213    0.3048E-21
  51983.275    0.3130E-21
  51983.338    0.3089E-21
  51983.400    0.3048E-21
  51983.462    0.2966E-21
  51983.525    0.2926E-21
  51983.587    0.2915E-21
  51983.650    0.2946E-21
  51983.712    0.2845E-21
  51983.775    0.2745E-21
  51983.837    0.2755E-21
  51983.900    0.2854E-21
  51983.962    0.2976E-21
  51984.025    0.2986E-21
  51984.087    0.2945E-21
  51984.150    0.2864E-21
  51984.212    0.2714E-21
  51984.275    0.2586E-21
  51984.337    0.2508E-21
  51984.400    0.2450E-21
  51984.462    0.2382E-21
  51984.524    0.2411E-21
  51984.587    0.2430E-21
  51984.649    0.2392E-21
  51984.712    0.2363E-21
  51984.774    0.2334E-21
  51984.837    0.2391E-21
  51984.899    0.2468E-21
  51984.962    0.2615E-21
  51985.024    0.2654E-21
  51985.087    0.2575E-21
  51985.149    0.2575E-21
  51985.212    0.2458E-21
  51985.274    0.2362E-21
  51985.337    0.2333E-21
  51985.399    0.2304E-21
  51985.462    0.2200E-21
  51985.524    0.2087E-21
  51985.586    0.2050E-21
  51985.649    0.2078E-21
  51985.711    0.2059E-21
  51985.774    0.2106E-21
  51985.836    0.2181E-21
  51985.899    0.2256E-21
  51985.961    0.2285E-21
  51986.024    0.2246E-21
  51986.086    0.2265E-21
  51986.149    0.2237E-21
  51986.211    0.2152E-21
  51986.274    0.2124E-21
  51986.336    0.2124E-21
  51986.399    0.2142E-21
  51986.461    0.2161E-21
  51986.524    0.2151E-21
  51986.586    0.2076E-21
  51986.649    0.1974E-21
  51986.711    0.1928E-21
  51986.773    0.1946E-21
  51986.836    0.1946E-21
  51986.898    0.1882E-21
  51986.961    0.1836E-21
  51987.023    0.1818E-21
  51987.086    0.1873E-21
  51987.148    0.1900E-21
  51987.211    0.1891E-21
  51987.273    0.1854E-21
  51987.336    0.1799E-21
  51987.398    0.1781E-21
  51987.461    0.1799E-21
  51987.523    0.1808E-21
  51987.586    0.1799E-21
  51987.648    0.1754E-21
  51987.711    0.1844E-21
  51987.773    0.1899E-21
  51987.836    0.1908E-21
  51987.898    0.1808E-21
  51987.961    0.1762E-21
  51988.023    0.1807E-21
  51988.086    0.1908E-21
  51988.148    0.1926E-21
  51988.210    0.1963E-21
  51988.273    0.1944E-21
  51988.335    0.1889E-21
  51988.398    0.1926E-21
  51988.460    0.1898E-21
  51988.523    0.1898E-21
  51988.585    0.1907E-21
  51988.648    0.1879E-21
  51988.710    0.1861E-21
  51988.773    0.1834E-21
  51988.835    0.1852E-21
  51988.898    0.1824E-21
  51988.960    0.1761E-21
  51989.023    0.1715E-21
  51989.085    0.1679E-21
  51989.148    0.1661E-21
  51989.210    0.1661E-21
  51989.273    0.1545E-21
  51989.335    0.1404E-21
  51989.398    0.1309E-21
  51989.460    0.1248E-21
  51989.523    0.1265E-21
  51989.585    0.1274E-21
  51989.648    0.1248E-21
  51989.710    0.1282E-21
  51989.773    0.1360E-21
  51989.835    0.1491E-21
  51989.897    0.1642E-21
  51989.960    0.1696E-21
  51990.022    0.1723E-21
  51990.085    0.1741E-21
  51990.147    0.1669E-21
  51990.210    0.1615E-21
  51990.272    0.1597E-21
  51990.335    0.1544E-21
  51990.397    0.1403E-21
  51990.460    0.1264E-21
  51990.522    0.1203E-21
  51990.585    0.1186E-21
  51990.647    0.1143E-21
  51990.710    0.1186E-21
  51990.772    0.1289E-21
  51990.835    0.1393E-21
  51990.897    0.1455E-21
  51990.960    0.1481E-21
  51991.022    0.1534E-21
  51991.085    0.1516E-21
  51991.147    0.1472E-21
  51991.210    0.1419E-21
  51991.272    0.1410E-21
  51991.335    0.1401E-21
  51991.397    0.1349E-21
  51991.460    0.1340E-21
  51991.522    0.1297E-21
  51991.585    0.1245E-21
  51991.647    0.1236E-21
  51991.710    0.1245E-21
  51991.772    0.1262E-21
  51991.835    0.1270E-21
  51991.897    0.1348E-21
  51991.960    0.1427E-21
  51992.022    0.1462E-21
  51992.085    0.1435E-21
  51992.147    0.1392E-21
  51992.210    0.1409E-21
  51992.272    0.1461E-21
  51992.335    0.1479E-21
  51992.397    0.1479E-21
  51992.459    0.1461E-21
  51992.522    0.1444E-21
  51992.584    0.1426E-21
  51992.647    0.1408E-21
  51992.709    0.1304E-21
  51992.772    0.1269E-21
  51992.834    0.1200E-21
  51992.897    0.1132E-21
  51992.959    0.1114E-21
  51993.022    0.1148E-21
  51993.084    0.1234E-21
  51993.147    0.1294E-21
  51993.209    0.1303E-21
  51993.272    0.1286E-21
  51993.334    0.1234E-21
  51993.397    0.1216E-21
  51993.459    0.1225E-21
  51993.522    0.1225E-21
  51993.584    0.1242E-21
  51993.647    0.1302E-21
  51993.709    0.1311E-21
  51993.772    0.1363E-21
  51993.834    0.1337E-21
  51993.897    0.1311E-21
  51993.959    0.1285E-21
  51994.022    0.1241E-21
  51994.084    0.1155E-21
  51994.147    0.1104E-21
  51994.209    0.1096E-21
  51994.272    0.1036E-21
  51994.334    0.9940E-22
  51994.397    0.9520E-22
  51994.459    0.9352E-22
  51994.522    0.9434E-22
  51994.584    0.9601E-22
  51994.647    0.1002E-21
  51994.709    0.1027E-21
  51994.772    0.9682E-22
  51994.834    0.9430E-22
  51994.897    0.9764E-22
  51994.959    0.1002E-21
  51995.022    0.1027E-21
  51995.084    0.1010E-21
  51995.147    0.9425E-22
  51995.209    0.9173E-22
  51995.272    0.8673E-22
  51995.334    0.8506E-22
  51995.397    0.8588E-22
  51995.459    0.8504E-22
  51995.522    0.8752E-22
  51995.584    0.9001E-22
  51995.647    0.9167E-22
  51995.709    0.9668E-22
  51995.772    0.1017E-21
  51995.834    0.1034E-21
  51995.897    0.1102E-21
  51995.959    0.1153E-21
  51996.022    0.1153E-21
  51996.084    0.1161E-21
  51996.147    0.1152E-21
  51996.209    0.1118E-21
  51996.272    0.1093E-21
  51996.334    0.1067E-21
  51996.397    0.1025E-21
  51996.459    0.9657E-22
  51996.522    0.9405E-22
  51996.584    0.9404E-22
  51996.647    0.9236E-22
  51996.709    0.9570E-22
  51996.772    0.9821E-22
  51996.834    0.9820E-22
  51996.897    0.9903E-22
  51996.959    0.9818E-22
  51997.022    0.9817E-22
  51997.084    0.9397E-22
  51997.147    0.8645E-22
  51997.209    0.8478E-22
  51997.272    0.7981E-22
  51997.334    0.8062E-22
  51997.397    0.8476E-22
  51997.459    0.9140E-22
  51997.522    0.9558E-22
  51997.584    0.1006E-21
  51997.647    0.1040E-21
  51997.709    0.1014E-21
  51997.772    0.9890E-22
  51997.834    0.9386E-22
  51997.897    0.8717E-22
  51997.959    0.8219E-22
  51998.022    0.7970E-22
  51998.084    0.7639E-22
  51998.147    0.8714E-22
  51998.209    0.9884E-22
  51998.272    0.1056E-21
  51998.334    0.1064E-21
  51998.397    0.1047E-21
  51998.459    0.1047E-21
  51998.522    0.9879E-22
  51998.584    0.8790E-22
  51998.647    0.8126E-22
  51998.709    0.7712E-22
  51998.772    0.7876E-22
  51998.834    0.7793E-22
  51998.897    0.8122E-22
  51998.959    0.7873E-22
  51999.022    0.8120E-22
  51999.084    0.8950E-22
  51999.147    0.9366E-22
  51999.209    0.8698E-22
  51999.272    0.7622E-22
  51999.334    0.7950E-22
  51999.397    0.8198E-22
  51999.460    0.8528E-22
  51999.522    0.8860E-22
  51999.585    0.8776E-22
  51999.647    0.8858E-22
  51999.710    0.8691E-22
  51999.772    0.8524E-22
  51999.835    0.8191E-22
  51999.897    0.8273E-22
  51999.960    0.7529E-22
  52000.022    0.7282E-22
  52000.085    0.8187E-22
  52000.147    0.9184E-22
  52000.210    0.9602E-22
  52000.272    0.9099E-22
  52000.335    0.7853E-22
  52000.397    0.7523E-22
  52000.460    0.7440E-22
  52000.522    0.6865E-22
  52000.585    0.6050E-22
  52000.647    0.5081E-22
  52000.710    0.4599E-22
  52000.772    0.4199E-22
  52000.835    0.4437E-22
  52000.897    0.4436E-22
  52000.960    0.3958E-22
  52001.022    0.4195E-22
  52001.085    0.4434E-22
  52001.147    0.4513E-22
  52001.210    0.5073E-22
  52001.272    0.5393E-22
  52001.335    0.6445E-22
  52001.397    0.7673E-22
  52001.460    0.7507E-22
  52001.522    0.7178E-22
  52001.585    0.7095E-22
  52001.647    0.7340E-22
  52001.710    0.7916E-22
  52001.772    0.8660E-22
  52001.835    0.8993E-22
  52001.898    0.8409E-22
  52001.960    0.7090E-22
  52002.023    0.6354E-22
  52002.085    0.6109E-22
  52002.148    0.6271E-22
  52002.210    0.6759E-22
  52002.273    0.6921E-22
  52002.335    0.6839E-22
  52002.398    0.6838E-22
  52002.460    0.6429E-22
  52002.523    0.6591E-22
  52002.585    0.6672E-22
  52002.648    0.6916E-22
  52002.710    0.6425E-22
  52002.773    0.5452E-22
  52002.835    0.4968E-22
  52002.898    0.4567E-22
  52002.960    0.4008E-22
  52003.023    0.4007E-22
  52003.085    0.4804E-22
  52003.148    0.5527E-22
  52003.210    0.5607E-22
  52003.273    0.6336E-22
  52003.335    0.6661E-22
  52003.398    0.6090E-22
  52003.460    0.5765E-22
  52003.523    0.5683E-22
  52003.585    0.5521E-22
  52003.648    0.6005E-22
  52003.711    0.5761E-22
  52003.773    0.5760E-22
  52003.836    0.6409E-22
  52003.898    0.6408E-22
  52003.961    0.6082E-22
  52004.023    0.5919E-22
  52004.086    0.5837E-22
  52004.148    0.5351E-22
  52004.211    0.4548E-22
  52004.273    0.4387E-22
  52004.336    0.3908E-22
  52004.398    0.2800E-22
  52004.461    0.2251E-22
  52004.523    0.2328E-22
  52004.586    0.3350E-22
  52004.648    0.5102E-22
  52004.711    0.6722E-22
  52004.773    0.7376E-22
  52004.836    0.7375E-22
  52004.898    0.6801E-22
  52004.961    0.6067E-22
  52005.023    0.6066E-22
  52005.086    0.5337E-22
  52005.149    0.5095E-22
  52005.211    0.5336E-22
  52005.274    0.5819E-22
  52005.336    0.5980E-22
  52005.399    0.5656E-22
  52005.461    0.5655E-22
  52005.524    0.5897E-22
  52005.586    0.5491E-22
  52005.649    0.5249E-22
  52005.711    0.5732E-22
  52005.774    0.6380E-22
  52005.836    0.6869E-22
  52005.899    0.7032E-22
  52005.961    0.6622E-22
  52006.024    0.5566E-22
  52006.086    0.4921E-22
  52006.149    0.3723E-22
  52006.211    0.3089E-22
  52006.274    0.3167E-22
  52006.337    0.3482E-22
  52006.399    0.3560E-22
  52006.462    0.3797E-22
  52006.524    0.4035E-22
  52006.587    0.4673E-22
  52006.649    0.5153E-22
  52006.712    0.4671E-22
  52006.774    0.4750E-22
  52006.837    0.5151E-22
  52006.899    0.5150E-22
  52006.962    0.5068E-22
  52007.024    0.4987E-22
  52007.087    0.5469E-22
  52007.149    0.5549E-22
  52007.212    0.5306E-22
  52007.274    0.4823E-22
  52007.337    0.5224E-22
  52007.400    0.5869E-22
  52007.462    0.6355E-22
  52007.525    0.6599E-22
  52007.587    0.6191E-22
  52007.650    0.5219E-22
  52007.712    0.3938E-22
  52007.775    0.2594E-22
  52007.837    0.2436E-22
  52007.900    0.2985E-22
  52007.962    0.3617E-22
  52008.025    0.3695E-22
  52008.087    0.3615E-22
  52008.150    0.4011E-22
  52008.212    0.4249E-22
  52008.275    0.4488E-22
  52008.337    0.5129E-22
  52008.400    0.5208E-22
  52008.463    0.5288E-22
  52008.525    0.5610E-22
  52008.588    0.5933E-22
  52008.650    0.5770E-22
  52008.713    0.5769E-22
  52008.775    0.5849E-22
  52008.838    0.5686E-22
  52008.900    0.5040E-22
  52008.963    0.4158E-22
  52009.025    0.3919E-22
  52009.088    0.4077E-22
  52009.150    0.4235E-22
  52009.213    0.4155E-22
  52009.275    0.3835E-22
  52009.338    0.3994E-22
  52009.401    0.4631E-22
  52009.463    0.4470E-22
  52009.526    0.4150E-22
  52009.588    0.4229E-22
  52009.651    0.4708E-22
  52009.713    0.5511E-22
  52009.776    0.5915E-22
  52009.838    0.5429E-22
  52009.901    0.4865E-22
  52009.963    0.5105E-22
  52010.026    0.5588E-22
  52010.088    0.5506E-22
  52010.151    0.4301E-22
  52010.214    0.3504E-22
  52010.276    0.3108E-22
  52010.339    0.3423E-22
  52010.401    0.3343E-22
  52010.464    0.2869E-22
  52010.526    0.3104E-22
  52010.589    0.3420E-22
  52010.651    0.3895E-22
  52010.714    0.4692E-22
  52010.776    0.4852E-22
  52010.839    0.4450E-22
  52010.901    0.4369E-22
  52010.964    0.4608E-22
  52011.027    0.4688E-22
  52011.089    0.4207E-22
  52011.152    0.3887E-22
  52011.214    0.3173E-22
  52011.277    0.3014E-22
  52011.339    0.2856E-22
  52011.402    0.3408E-22
  52011.464    0.5002E-22
  52011.527    0.5646E-22
  52011.589    0.5403E-22
  52011.652    0.4678E-22
  52011.714    0.4677E-22
  52011.777    0.4998E-22
  52011.840    0.5077E-22
  52011.902    0.4515E-22
  52011.965    0.3796E-22
  52012.027    0.3875E-22
  52012.090    0.3397E-22
  52012.152    0.2765E-22
  52012.215    0.2764E-22
  52012.277    0.2842E-22
  52012.340    0.2920E-22
  52012.402    0.2604E-22
  52012.465    0.2289E-22
  52012.528    0.2445E-22
  52012.590    0.2680E-22
  52012.653    0.2994E-22
  52012.715    0.3547E-22
  52012.778    0.3625E-22
  52012.840    0.3624E-22
  52012.903    0.3623E-22
  52012.965    0.3861E-22
  52013.028    0.4338E-22
  52013.090    0.4818E-22
  52013.153    0.5138E-22
  52013.216    0.4495E-22
  52013.278    0.4255E-22
  52013.341    0.3855E-22
  52013.403    0.3775E-22
  52013.466    0.3615E-22
  52013.528    0.3376E-22
  52013.591    0.3613E-22
  52013.653    0.3930E-22
  52013.716    0.3929E-22
  52013.778    0.4088E-22
  52013.841    0.3848E-22
  52013.904    0.3529E-22
  52013.966    0.2817E-22
  52014.029    0.2580E-22
  52014.091    0.3131E-22
  52014.154    0.3446E-22
  52014.216    0.3604E-22
  52014.279    0.3365E-22
  52014.341    0.3523E-22
  52014.404    0.3919E-22
  52014.466    0.3839E-22
  52014.529    0.4156E-22
  52014.592    0.4315E-22
  52014.654    0.3836E-22
  52014.717    0.3676E-22
  52014.779    0.3358E-22
  52014.842    0.2883E-22
  52014.904    0.3040E-22
  52014.967    0.3197E-22
  52015.029    0.2723E-22
  52015.092    0.2408E-22
  52015.154    0.2721E-22
  52015.217    0.2956E-22
  52015.280    0.2955E-22
  52015.342    0.3508E-22
  52015.405    0.4223E-22
  52015.467    0.4382E-22
  52015.530    0.4862E-22
  52015.592    0.4861E-22
  52015.655    0.5182E-22
  52015.717    0.5747E-22
  52015.780    0.6233E-22
  52015.843    0.7214E-22
  52015.905    0.7707E-22
  52015.968    0.7294E-22
  52016.030    0.6801E-22
  52016.093    0.5822E-22
  52016.155    0.4132E-22
  52016.218    0.3416E-22
  52016.280    0.3494E-22
  52016.343    0.3573E-22
  52016.406    0.3731E-22
  52016.468    0.3889E-22
  52016.531    0.3888E-22
