# 16O2;(2,0);79K;50530-755 cm-1;3801 pts
#     WNO          SIGMA  
  50530.077    0.1041E-22
  50530.136    0.1257E-22
  50530.194    0.1547E-22
  50530.253    0.1473E-22
  50530.312    0.1110E-22
  50530.371    0.1181E-22
  50530.430    0.8910E-23
  50530.489    0.3142E-23
  50530.548    0.4569E-23
  50530.607    0.1322E-22
  50530.665    0.1684E-22
  50530.724    0.1393E-22
  50530.783    0.1610E-22
  50530.842    0.1754E-22
  50530.901    0.1608E-22
  50530.960    0.1679E-22
  50531.019    0.1751E-22
  50531.078    0.2261E-22
  50531.136    0.2847E-22
  50531.195    0.3140E-22
  50531.254    0.2845E-22
  50531.313    0.2111E-22
  50531.372    0.1237E-22
  50531.431    0.2987E-23
  50531.490    0.1542E-23
  50531.549    0.3685E-23
  50531.607    0.2957E-23
  50531.666    0.5103E-23
  50531.725    0.9419E-23
  50531.784    0.1884E-22
  50531.843    0.2395E-22
  50531.902    0.2101E-22
  50531.961    0.1663E-22
  50532.020    0.7927E-23
  50532.079    0.1445E-23
  50532.137    0.7907E-23
  50532.196    0.1296E-22
  50532.255    0.1222E-22
  50532.314    0.7157E-23
  50532.373    0.3549E-23
  50532.432    0.2822E-23
  50532.491    0.6607E-24
  50532.550    0.1368E-23
  50532.608    0.1358E-23
  50532.667   -0.1515E-23
  50532.726   -0.2239E-23
  50532.785   -0.2249E-23
  50532.844   -0.5825E-23
  50532.903   -0.5122E-23
  50532.962   -0.4419E-23
  50533.021   -0.1427E-24
  50533.079    0.4871E-23
  50533.138    0.4861E-23
  50533.197    0.6291E-23
  50533.256    0.6281E-23
  50533.315    0.2676E-23
  50533.374   -0.2008E-24
  50533.433    0.1939E-23
  50533.492    0.8406E-23
  50533.551    0.8396E-23
  50533.609    0.6223E-23
  50533.668    0.1127E-22
  50533.727    0.1488E-22
  50533.786    0.1633E-22
  50533.845    0.1486E-22
  50533.904    0.9060E-23
  50533.963    0.3288E-23
  50534.022   -0.1023E-23
  50534.081   -0.3177E-23
  50534.139   -0.1043E-23
  50534.198    0.3967E-23
  50534.257    0.7558E-23
  50534.316    0.1624E-22
  50534.375    0.1478E-22
  50534.434    0.8250E-23
  50534.493    0.6078E-23
  50534.552   -0.1110E-23
  50534.610   -0.8959E-23
  50534.669   -0.1251E-22
  50534.728   -0.1181E-22
  50534.787   -0.1112E-22
  50534.846   -0.1113E-22
  50534.905   -0.6876E-23
  50534.964   -0.4749E-23
  50535.023   -0.2618E-23
  50535.082    0.5981E-23
  50535.140    0.1103E-22
  50535.199    0.7403E-23
  50535.258    0.9559E-23
  50535.317    0.1390E-22
  50535.376    0.1244E-22
  50535.435    0.7364E-23
  50535.494    0.2317E-23
  50535.553   -0.2705E-23
  50535.612   -0.6281E-23
  50535.670   -0.1197E-22
  50535.729   -0.1763E-22
  50535.788   -0.2045E-22
  50535.847   -0.1765E-22
  50535.906   -0.1484E-22
  50535.965   -0.1131E-22
  50536.024   -0.4924E-23
  50536.083    0.2220E-23
  50536.142    0.6526E-23
  50536.200    0.9404E-23
  50536.259    0.2909E-23
  50536.318   -0.1066E-22
  50536.377   -0.1844E-22
  50536.436   -0.1563E-22
  50536.495   -0.6426E-23
  50536.554    0.5738E-23
  50536.613    0.1368E-22
  50536.672    0.1440E-22
  50536.731    0.1076E-22
  50536.789    0.3540E-23
  50536.848   -0.7907E-23
  50536.907   -0.1217E-22
  50536.966   -0.1077E-22
  50537.025   -0.4375E-23
  50537.084   -0.2957E-23
  50537.143   -0.8218E-24
  50537.202   -0.2262E-23
  50537.261   -0.6552E-23
  50537.319   -0.4424E-23
  50537.378   -0.3720E-23
  50537.437   -0.7293E-23
  50537.496   -0.3739E-23
  50537.555   -0.1605E-23
  50537.614   -0.1833E-24
  50537.673   -0.8043E-23
  50537.732   -0.1018E-22
  50537.791   -0.9483E-23
  50537.850   -0.2222E-24
  50537.908    0.1202E-22
  50537.967    0.2147E-22
  50538.026    0.2660E-22
  50538.085    0.1926E-22
  50538.144    0.7639E-23
  50538.203   -0.3142E-23
  50538.262   -0.8851E-23
  50538.321   -0.7439E-23
  50538.380   -0.3171E-23
  50538.438    0.3988E-23
  50538.497    0.1047E-22
  50538.556    0.8293E-23
  50538.615    0.7561E-23
  50538.674    0.1793E-23
  50538.733   -0.5370E-23
  50538.792   -0.1319E-22
  50538.851   -0.1814E-22
  50538.910   -0.1674E-22
  50538.969   -0.1816E-22
  50539.027   -0.1535E-22
  50539.086   -0.1112E-22
  50539.145   -0.9707E-23
  50539.204   -0.6160E-23
  50539.263    0.6733E-23
  50539.322    0.1469E-22
  50539.381    0.1613E-22
  50539.440    0.1758E-22
  50539.499    0.1103E-22
  50539.558    0.3084E-23
  50539.616   -0.2660E-23
  50539.675   -0.4099E-23
  50539.734   -0.3394E-23
  50539.793   -0.5425E-24
  50539.852    0.8080E-23
  50539.911    0.2115E-22
  50539.970    0.2701E-22
  50540.029    0.2627E-22
  50540.088    0.1456E-22
  50540.147    0.1158E-24
  50540.205   -0.3472E-23
  50540.264   -0.2052E-23
  50540.323   -0.6299E-24
  50540.382   -0.5642E-23
  50540.441   -0.7788E-23
  50540.500   -0.3520E-23
  50540.559   -0.1385E-23
  50540.618   -0.2110E-23
  50540.677   -0.3550E-23
  50540.736   -0.4987E-23
  50540.795   -0.7135E-23
  50540.853   -0.6432E-23
  50540.912   -0.7866E-23
  50540.971   -0.7164E-23
  50541.030   -0.2985E-25
  50541.089    0.7876E-23
  50541.148    0.1004E-22
  50541.207    0.8579E-23
  50541.266    0.7847E-23
  50541.325    0.5672E-23
  50541.384    0.4222E-23
  50541.443    0.6193E-24
  50541.501   -0.6539E-23
  50541.560   -0.7973E-23
  50541.619   -0.5846E-23
  50541.678   -0.5142E-23
  50541.737   -0.5152E-23
  50541.796   -0.6588E-23
  50541.855   -0.8732E-23
  50541.914   -0.2324E-23
  50541.973    0.7008E-23
  50542.032    0.1570E-22
  50542.090    0.1933E-22
  50542.149    0.2005E-22
  50542.208    0.1567E-22
  50542.267    0.1130E-22
  50542.326    0.1129E-22
  50542.385    0.1418E-22
  50542.444    0.1272E-22
  50542.503    0.1271E-22
  50542.562    0.1634E-22
  50542.621    0.1124E-22
  50542.680    0.7613E-23
  50542.738    0.4056E-24
  50542.797   -0.7465E-23
  50542.856   -0.1103E-22
  50542.915   -0.1104E-22
  50542.974   -0.1105E-22
  50543.033   -0.6079E-23
  50543.092   -0.1086E-23
  50543.151    0.3376E-24
  50543.210   -0.1106E-23
  50543.269    0.1036E-23
  50543.328    0.7507E-23
  50543.387    0.9666E-23
  50543.445    0.1256E-22
  50543.504    0.9647E-23
  50543.563    0.1109E-22
  50543.622    0.1762E-22
  50543.681    0.2053E-22
  50543.740    0.1687E-22
  50543.799    0.1905E-22
  50543.858    0.1540E-22
  50543.917    0.3804E-23
  50543.976   -0.1232E-23
  50544.035   -0.4817E-23
  50544.093   -0.9812E-23
  50544.152   -0.1478E-22
  50544.211   -0.1267E-22
  50544.270   -0.6996E-23
  50544.329    0.4456E-23
  50544.388    0.1895E-22
  50544.447    0.2041E-22
  50544.506    0.1747E-22
  50544.565    0.1528E-22
  50544.624    0.7293E-23
  50544.683    0.8497E-25
  50544.742   -0.3505E-23
  50544.800   -0.6515E-24
  50544.859    0.4369E-23
  50544.918    0.5080E-23
  50544.977    0.1472E-23
  50545.036   -0.2839E-23
  50545.095   -0.4278E-23
  50545.154    0.5762E-23
  50545.213    0.1299E-22
  50545.272    0.1808E-22
  50545.331    0.2319E-22
  50545.390    0.2098E-22
  50545.449    0.1513E-22
  50545.507    0.1149E-22
  50545.566    0.1003E-22
  50545.625    0.1002E-22
  50545.684    0.4953E-23
  50545.743   -0.7951E-23
  50545.802   -0.1788E-22
  50545.861   -0.2422E-22
  50545.920   -0.2212E-22
  50545.979   -0.1083E-22
  50546.038   -0.1385E-24
  50546.097    0.5606E-23
  50546.156    0.3435E-23
  50546.214    0.1268E-23
  50546.273    0.5402E-24
  50546.332    0.1249E-23
  50546.391   -0.1631E-23
  50546.450   -0.4502E-23
  50546.509   -0.3082E-23
  50546.568   -0.5949E-23
  50546.627   -0.1023E-22
  50546.686   -0.1237E-22
  50546.745   -0.8828E-23
  50546.804   -0.5988E-23
  50546.863   -0.2424E-23
  50546.922   -0.3150E-23
  50546.980   -0.1242E-22
  50547.039   -0.1808E-22
  50547.098   -0.1880E-22
  50547.157   -0.1528E-22
  50547.216   -0.1387E-22
  50547.275   -0.1034E-22
  50547.334   -0.7501E-23
  50547.393   -0.3943E-23
  50547.452   -0.3237E-23
  50547.511   -0.6104E-23
  50547.570   -0.4686E-23
  50547.629    0.2472E-23
  50547.688    0.5344E-23
  50547.746    0.7500E-23
  50547.805    0.1184E-22
  50547.864    0.1110E-22
  50547.923    0.7471E-23
  50547.982    0.9763E-24
  50548.041   -0.6905E-23
  50548.100   -0.1402E-22
  50548.159   -0.1474E-22
  50548.218   -0.8359E-23
  50548.277   -0.5517E-23
  50548.336   -0.4813E-23
  50548.395   -0.3393E-23
  50548.454   -0.5546E-23
  50548.513    0.8888E-24
  50548.571    0.4477E-23
  50548.630    0.8694E-24
  50548.689   -0.5585E-23
  50548.748   -0.1129E-22
  50548.807   -0.1343E-22
  50548.866   -0.7041E-23
  50548.925   -0.5624E-23
  50548.984   -0.1133E-22
  50549.043   -0.1134E-22
  50549.102   -0.1560E-22
  50549.161   -0.1773E-22
  50549.220   -0.1491E-22
  50549.279   -0.3539E-23
  50549.338    0.1522E-22
  50549.396    0.2325E-22
  50549.455    0.2471E-22
  50549.514    0.1519E-22
  50549.573    0.2871E-23
  50549.632   -0.2881E-23
  50549.691   -0.3607E-23
  50549.750   -0.2901E-23
  50549.809   -0.2911E-23
  50549.868    0.2822E-23
  50549.927    0.1149E-22
  50549.986    0.1366E-22
  50550.045    0.1437E-22
  50550.104    0.1509E-22
  50550.163    0.1290E-22
  50550.221    0.1362E-22
  50550.280    0.1288E-22
  50550.339    0.1214E-22
  50550.398    0.1359E-22
  50550.457    0.1140E-22
  50550.516    0.8490E-23
  50550.575    0.3426E-23
  50550.634   -0.8969E-24
  50550.693   -0.8767E-23
  50550.752   -0.1375E-22
  50550.811   -0.9499E-23
  50550.870   -0.2182E-24
  50550.929    0.9146E-23
  50550.988    0.1495E-22
  50551.047    0.1275E-22
  50551.105    0.1202E-22
  50551.164    0.9107E-23
  50551.223    0.3319E-23
  50551.282    0.1150E-23
  50551.341   -0.9586E-23
  50551.400   -0.1315E-22
  50551.459   -0.7469E-23
  50551.518   -0.7479E-23
  50551.577   -0.8913E-23
  50551.636   -0.1672E-22
  50551.695   -0.2378E-22
  50551.754   -0.1957E-22
  50551.813   -0.1251E-22
  50551.872   -0.3967E-23
  50551.931    0.1043E-23
  50551.990    0.6800E-23
  50552.048    0.1477E-22
  50552.107    0.2207E-22
  50552.166    0.2795E-22
  50552.225    0.3163E-22
  50552.284    0.3236E-22
  50552.343    0.3161E-22
  50552.402    0.3086E-22
  50552.461    0.2938E-22
  50552.520    0.2347E-22
  50552.579    0.2053E-22
  50552.638    0.2052E-22
  50552.697    0.2491E-22
  50552.756    0.2490E-22
  50552.815    0.1319E-22
  50552.874   -0.2700E-23
  50552.933   -0.1482E-22
  50552.991   -0.1412E-22
  50553.050   -0.5591E-23
  50553.109    0.8488E-24
  50553.168    0.6606E-23
  50553.227    0.6596E-23
  50553.286    0.5864E-23
  50553.345    0.3689E-23
  50553.404    0.2239E-23
  50553.463    0.4391E-23
  50553.522   -0.6560E-24
  50553.581   -0.3533E-23
  50553.640   -0.6755E-24
  50553.699    0.5795E-23
  50553.758    0.1013E-22
  50553.817    0.3611E-23
  50553.876   -0.1432E-23
  50553.935   -0.1442E-23
  50553.993   -0.7338E-24
  50554.052   -0.2178E-23
  50554.111    0.1402E-23
  50554.170    0.5718E-23
  50554.229   -0.7728E-24
  50554.288   -0.1078E-22
  50554.347   -0.1576E-22
  50554.406   -0.1648E-22
  50554.465   -0.1294E-22
  50554.524   -0.1366E-22
  50554.583   -0.1580E-22
  50554.642   -0.1510E-22
  50554.701   -0.1440E-22
  50554.760   -0.1299E-22
  50554.819   -0.9448E-23
  50554.878    0.1276E-23
  50554.937    0.7760E-23
  50554.996    0.1138E-22
  50555.054    0.1282E-22
  50555.113    0.1208E-22
  50555.172    0.1280E-22
  50555.231    0.9160E-23
  50555.290    0.1278E-22
  50555.349    0.8416E-23
  50555.408   -0.3835E-23
  50555.467   -0.8843E-23
  50555.526   -0.3854E-23
  50555.585   -0.9966E-24
  50555.644   -0.2883E-24
  50555.703    0.1140E-23
  50555.762    0.4108E-24
  50555.821   -0.8902E-23
  50555.880   -0.1813E-22
  50555.939   -0.1673E-22
  50555.998   -0.1461E-22
  50556.057   -0.1108E-22
  50556.116   -0.6811E-23
  50556.174   -0.1038E-22
  50556.233   -0.1039E-22
  50556.292   -0.3981E-23
  50556.351    0.2472E-23
  50556.410    0.3038E-24
  50556.469   -0.1143E-23
  50556.528   -0.4735E-23
  50556.587   -0.9741E-23
  50556.646   -0.1259E-22
  50556.705   -0.9048E-23
  50556.764   -0.3343E-23
  50556.823    0.9547E-24
  50556.882    0.8163E-23
  50556.941    0.1033E-22
  50557.000    0.9593E-23
  50557.059    0.9584E-23
  50557.118    0.1103E-22
  50557.177    0.8114E-23
  50557.236    0.2326E-23
  50557.295   -0.5577E-23
  50557.354   -0.5587E-23
  50557.412   -0.5803E-24
  50557.471    0.5895E-23
  50557.530    0.1387E-22
  50557.589    0.1532E-22
  50557.648    0.1166E-22
  50557.707    0.2969E-23
  50557.766   -0.5655E-23
  50557.825   -0.5665E-23
  50557.884    0.6035E-25
  50557.943    0.4373E-23
  50558.002    0.6530E-23
  50558.061    0.3631E-23
  50558.120    0.2140E-25
  50558.179    0.2170E-23
  50558.238    0.3602E-23
  50558.297    0.2151E-23
  50558.356    0.7920E-23
  50558.415    0.7186E-23
  50558.474    0.5007E-23
  50558.533    0.5720E-23
  50558.592    0.4987E-23
  50558.651   -0.6624E-25
  50558.709   -0.1009E-22
  50558.768   -0.9389E-23
  50558.827   -0.7259E-23
  50558.886   -0.1052E-24
  50558.945    0.7098E-23
  50559.004    0.1071E-22
  50559.063    0.1434E-22
  50559.122    0.1506E-22
  50559.181    0.1141E-22
  50559.240    0.4158E-23
  50559.299   -0.8919E-24
  50559.358   -0.9017E-24
  50559.417    0.4129E-23
  50559.476    0.2677E-23
  50559.535   -0.9309E-24
  50559.594   -0.2376E-23
  50559.653   -0.5251E-23
  50559.712   -0.5976E-23
  50559.771   -0.8842E-23
  50559.830   -0.9564E-23
  50559.889   -0.1242E-22
  50559.948   -0.1243E-22
  50560.007   -0.4594E-23
  50560.066   -0.1019E-23
  50560.124    0.1129E-23
  50560.183    0.4002E-23
  50560.242    0.3271E-23
  50560.301   -0.3390E-24
  50560.360    0.1810E-23
  50560.419    0.1080E-23
  50560.478    0.1791E-23
  50560.537    0.4666E-23
  50560.596    0.4656E-23
  50560.655    0.3925E-23
  50560.714   -0.4711E-23
  50560.773   -0.4721E-23
  50560.832    0.1732E-23
  50560.891    0.8951E-23
  50560.950    0.1768E-22
  50561.009    0.1914E-22
  50561.068    0.1110E-22
  50561.127    0.9633E-24
  50561.186   -0.3356E-23
  50561.245   -0.1931E-23
  50561.304   -0.4092E-23
  50561.363   -0.1233E-23
  50561.422    0.1950E-24
  50561.481    0.3788E-23
  50561.540    0.3057E-23
  50561.599    0.8854E-24
  50561.658    0.2316E-23
  50561.716    0.1586E-23
  50561.775    0.5184E-23
  50561.834    0.1025E-22
  50561.893    0.1460E-22
  50561.952    0.1605E-22
  50562.011    0.1897E-22
  50562.070    0.1896E-22
  50562.129    0.1822E-22
  50562.188    0.1894E-22
  50562.247    0.1820E-22
  50562.306    0.1381E-22
  50562.365    0.9433E-23
  50562.424    0.7248E-23
  50562.483    0.2180E-23
  50562.542    0.9895E-26
  50562.601    0.1440E-23
  50562.660    0.4315E-23
  50562.719    0.7923E-23
  50562.778    0.2852E-23
  50562.837   -0.7207E-23
  50562.896   -0.1575E-22
  50562.955   -0.2001E-22
  50563.014   -0.1790E-22
  50563.073   -0.1366E-22
  50563.132   -0.8684E-23
  50563.191   -0.9730E-25
  50563.250    0.6387E-23
  50563.309    0.2022E-22
  50563.368    0.2536E-22
  50563.427    0.1947E-22
  50563.486    0.1507E-22
  50563.545    0.9238E-23
  50563.603   -0.1655E-24
  50563.662    0.1985E-23
  50563.721    0.8483E-23
  50563.780    0.1138E-22
  50563.839    0.6290E-23
  50563.898    0.2667E-23
  50563.957    0.4101E-23
  50564.016    0.2648E-23
  50564.075    0.1196E-23
  50564.134    0.4794E-23
  50564.193    0.6231E-23
  50564.252    0.1276E-22
  50564.311    0.1202E-22
  50564.370    0.1274E-22
  50564.429    0.1346E-22
  50564.488    0.1345E-22
  50564.547    0.1709E-22
  50564.606    0.1635E-22
  50564.665    0.1780E-22
  50564.724    0.1779E-22
  50564.783    0.1705E-22
  50564.842    0.9749E-23
  50564.901    0.7563E-23
  50564.960    0.9004E-23
  50565.019    0.3203E-23
  50565.078   -0.5432E-23
  50565.137   -0.9728E-23
  50565.196   -0.1045E-22
  50565.255   -0.1331E-22
  50565.314   -0.6902E-23
  50565.373    0.2616E-24
  50565.432    0.2519E-24
  50565.491    0.6017E-23
  50565.550    0.1036E-22
  50565.609    0.9623E-23
  50565.668    0.1107E-22
  50565.727    0.9603E-23
  50565.786    0.7417E-23
  50565.844    0.7407E-23
  50565.903    0.1615E-23
  50565.962   -0.4862E-23
  50566.021   -0.1627E-22
  50566.080   -0.2334E-22
  50566.139   -0.2546E-22
  50566.198   -0.2547E-22
  50566.257   -0.1914E-22
  50566.316   -0.1135E-22
  50566.375   -0.1207E-22
  50566.434   -0.9943E-23
  50566.493   -0.9239E-23
  50566.552   -0.5676E-23
  50566.611   -0.6627E-24
  50566.670    0.1090E-22
  50566.729    0.1966E-22
  50566.788    0.2332E-22
  50566.847    0.2478E-22
  50566.906    0.1743E-22
  50566.965    0.5773E-23
  50567.024   -0.6470E-23
  50567.083   -0.7194E-23
  50567.142   -0.7919E-23
  50567.201   -0.7214E-23
  50567.260   -0.5077E-23
  50567.319   -0.5803E-23
  50567.378   -0.2945E-23
  50567.437   -0.5106E-23
  50567.496   -0.7977E-23
  50567.555   -0.8701E-23
  50567.614   -0.6567E-23
  50567.673   -0.3712E-23
  50567.732   -0.4438E-23
  50567.791   -0.8740E-23
  50567.850   -0.4458E-23
  50567.909    0.1283E-23
  50567.968    0.7056E-23
  50568.027    0.7046E-23
  50568.086    0.3418E-23
  50568.145    0.2687E-23
  50568.204    0.6292E-23
  50568.263    0.9910E-23
  50568.322    0.1281E-22
  50568.381    0.1207E-22
  50568.440    0.1206E-22
  50568.499    0.9871E-23
  50568.558    0.9862E-23
  50568.617    0.9125E-23
  50568.676    0.5490E-23
  50568.735    0.6204E-23
  50568.794    0.9096E-23
  50568.853    0.1054E-22
  50568.912    0.9803E-23
  50568.971    0.2550E-23
  50569.030   -0.3936E-23
  50569.089   -0.1394E-22
  50569.148   -0.1679E-22
  50569.206   -0.1538E-22
  50569.265   -0.1468E-22
  50569.324   -0.1185E-22
  50569.383   -0.7575E-23
  50569.442    0.3088E-24
  50569.501    0.8979E-23
  50569.560    0.1334E-22
  50569.619    0.1625E-22
  50569.678    0.1405E-22
  50569.737    0.8214E-23
  50569.796    0.3858E-23
  50569.855    0.2404E-23
  50569.914    0.9513E-24
  50569.973   -0.4991E-24
  50570.032   -0.5088E-24
  50570.091   -0.5186E-24
  50570.150   -0.5283E-24
  50570.209   -0.5565E-23
  50570.268   -0.5478E-24
  50570.327    0.4493E-23
  50570.386   -0.2725E-23
  50570.445   -0.1132E-22
  50570.504   -0.7760E-23
  50570.563   -0.4189E-23
  50570.622    0.8794E-23
  50570.681    0.1974E-22
  50570.740    0.1753E-22
  50570.799    0.1752E-22
  50570.858    0.1531E-22
  50570.917    0.1457E-22
  50570.976    0.1019E-22
  50571.035    0.1236E-22
  50571.094    0.1674E-22
  50571.153    0.2260E-22
  50571.212    0.2998E-22
  50571.271    0.3145E-22
  50571.330    0.3889E-22
  50571.389    0.4865E-22
  50571.448    0.5318E-22
  50571.507    0.5697E-22
  50571.566    0.5696E-22
  50571.625    0.6000E-22
  50571.684    0.6534E-22
  50571.743    0.6457E-22
  50571.802    0.6379E-22
  50571.861    0.6378E-22
  50571.920    0.5462E-22
  50571.979    0.4629E-22
  50572.038    0.4102E-22
  50572.097    0.3951E-22
  50572.156    0.4400E-22
  50572.215    0.4324E-22
  50572.274    0.3724E-22
  50572.333    0.3276E-22
  50572.392    0.2904E-22
  50572.451    0.2460E-22
  50572.510    0.2680E-22
  50572.569    0.2458E-22
  50572.628    0.1429E-22
  50572.687    0.8452E-23
  50572.746    0.6991E-23
  50572.805    0.9159E-23
  50572.864    0.1133E-22
  50572.923    0.1351E-22
  50572.982    0.1204E-22
  50573.041    0.1057E-22
  50573.100    0.1129E-22
  50573.159    0.6922E-23
  50573.218   -0.3157E-24
  50573.277   -0.1765E-23
  50573.336   -0.3213E-23
  50573.395   -0.6092E-23
  50573.454   -0.6101E-23
  50573.513   -0.3645E-24
  50573.572    0.5404E-23
  50573.631    0.1339E-22
  50573.690    0.9013E-23
  50573.749    0.7550E-23
  50573.808    0.1750E-23
  50573.867   -0.1046E-22
  50573.926   -0.1899E-22
  50573.985   -0.2746E-22
  50574.044   -0.2466E-22
  50574.103   -0.1335E-22
  50574.162   -0.1912E-23
  50574.221    0.3126E-23
  50574.280   -0.3369E-23
  50574.339   -0.9823E-23
  50574.398   -0.1340E-22
  50574.457   -0.1483E-22
  50574.516   -0.6277E-23
  50574.575    0.1803E-24
  50574.634    0.2335E-23
  50574.693    0.3048E-23
  50574.752    0.8837E-23
  50574.811    0.1320E-22
  50574.870    0.1538E-22
  50574.929    0.1610E-22
  50574.988    0.1829E-22
  50575.047    0.2195E-22
  50575.106    0.2268E-22
  50575.165    0.1241E-22
  50575.224    0.7940E-24
  50575.283   -0.7120E-23
  50575.342   -0.9989E-23
  50575.401   -0.1285E-22
  50575.460   -0.1357E-22
  50575.519   -0.1358E-22
  50575.578   -0.1714E-22
  50575.637   -0.1644E-22
  50575.696   -0.1787E-22
  50575.755   -0.2212E-22
  50575.814   -0.2354E-22
  50575.873   -0.2214E-22
  50575.932   -0.1294E-22
  50575.991   -0.2933E-23
  50576.050    0.1379E-23
  50576.109    0.1369E-23
  50576.168    0.6378E-24
  50576.227   -0.2972E-23
  50576.286   -0.1543E-23
  50576.345    0.2052E-23
  50576.404    0.7837E-23
  50576.463    0.1512E-22
  50576.522    0.1657E-22
  50576.581    0.1218E-22
  50576.640    0.1071E-22
  50576.699    0.1070E-22
  50576.758    0.1069E-22
  50576.817    0.1068E-22
  50576.876    0.9940E-23
  50576.935    0.4124E-23
  50576.994   -0.3818E-23
  50577.053    0.1213E-23
  50577.112    0.1355E-22
  50577.171    0.1940E-22
  50577.230    0.1499E-22
  50577.289    0.1352E-22
  50577.348    0.9134E-23
  50577.407    0.1154E-23
  50577.466   -0.3896E-23
  50577.525    0.1857E-23
  50577.584    0.4740E-23
  50577.643   -0.1768E-23
  50577.702   -0.3217E-23
  50577.761    0.3987E-23
  50577.820    0.1562E-22
  50577.879    0.2075E-22
  50577.938    0.2221E-22
  50577.997    0.2368E-22
  50578.057    0.2588E-22
  50578.116    0.2587E-22
  50578.175    0.2070E-22
  50578.234    0.1044E-22
  50578.293    0.2452E-23
  50578.352    0.9979E-24
  50578.411    0.8959E-23
  50578.470    0.1405E-22
  50578.529    0.1185E-22
  50578.588    0.6750E-23
  50578.647    0.3840E-23
  50578.706    0.4555E-23
  50578.765    0.5995E-23
  50578.824    0.2364E-23
  50578.883    0.9100E-24
  50578.942    0.8144E-23
  50579.001    0.8861E-23
  50579.060    0.1176E-22
  50579.119    0.1395E-22
  50579.178    0.1175E-22
  50579.237    0.6642E-23
  50579.296    0.7358E-23
  50579.355    0.8802E-23
  50579.414    0.9520E-23
  50579.473    0.1316E-22
  50579.532    0.1023E-22
  50579.591    0.5858E-23
  50579.650   -0.6596E-24
  50579.709   -0.4267E-23
  50579.768   -0.6792E-24
  50579.827    0.2198E-23
  50579.886    0.3635E-23
  50579.945    0.1089E-22
  50580.004    0.2040E-22
  50580.063    0.1672E-22
  50580.122    0.1159E-22
  50580.181    0.1158E-22
  50580.240    0.1303E-22
  50580.299    0.1521E-22
  50580.358    0.1667E-22
  50580.417    0.1666E-22
  50580.476    0.1738E-22
  50580.535    0.2400E-22
  50580.594    0.2325E-22
  50580.653    0.2029E-22
  50580.712    0.1808E-22
  50580.771    0.2027E-22
  50580.830    0.1879E-22
  50580.889    0.1000E-22
  50580.948    0.5680E-24
  50581.007   -0.5200E-23
  50581.066   -0.1731E-24
  50581.125    0.2706E-23
  50581.184    0.5289E-24
  50581.243   -0.3084E-23
  50581.302   -0.4531E-23
  50581.362   -0.7410E-23
  50581.421   -0.6703E-23
  50581.480   -0.4560E-23
  50581.539   -0.3133E-23
  50581.598   -0.6733E-23
  50581.657   -0.3871E-23
  50581.716   -0.3162E-23
  50581.775   -0.2452E-23
  50581.834   -0.1742E-23
  50581.893   -0.8930E-23
  50581.952   -0.1180E-22
  50582.011   -0.1394E-22
  50582.070   -0.1253E-22
  50582.129   -0.7537E-23
  50582.188   -0.3240E-23
  50582.247    0.6870E-23
  50582.306    0.6134E-23
  50582.365    0.1778E-23
  50582.424    0.1768E-23
  50582.483    0.1036E-23
  50582.542   -0.1139E-23
  50582.601    0.3186E-23
  50582.660    0.2452E-23
  50582.719   -0.1168E-23
  50582.778   -0.1051E-22
  50582.837   -0.1408E-22
  50582.896   -0.1551E-22
  50582.955   -0.1410E-22
  50583.014   -0.1197E-22
  50583.073   -0.1198E-22
  50583.132   -0.7703E-23
  50583.191   -0.3406E-23
  50583.250    0.1631E-23
  50583.309    0.5242E-23
  50583.368    0.7411E-23
  50583.427    0.8856E-23
  50583.486    0.6664E-23
  50583.545    0.4478E-23
  50583.604    0.1101E-22
  50583.664    0.2866E-22
  50583.723    0.4209E-22
  50583.782    0.4434E-22
  50583.841    0.3533E-22
  50583.900    0.2714E-22
  50583.959    0.1534E-22
  50584.018    0.4400E-23
  50584.077    0.4991E-25
  50584.136   -0.3563E-23
  50584.195   -0.2853E-23
  50584.254   -0.1422E-23
  50584.313    0.3626E-23
  50584.372    0.5066E-23
  50584.431    0.5056E-23
  50584.490    0.7952E-23
  50584.549    0.6938E-24
  50584.608   -0.6514E-23
  50584.667   -0.3651E-23
  50584.726   -0.1500E-23
  50584.785   -0.6743E-25
  50584.844   -0.1520E-23
  50584.903   -0.1530E-23
  50584.962    0.2071E-23
  50585.021    0.8592E-23
  50585.080    0.1077E-22
  50585.139    0.1076E-22
  50585.198    0.9290E-23
  50585.257    0.9281E-23
  50585.316    0.3460E-23
  50585.375   -0.8075E-23
  50585.434   -0.1095E-22
  50585.494   -0.1310E-22
  50585.553   -0.1311E-22
  50585.612   -0.1312E-22
  50585.671   -0.9556E-23
  50585.730   -0.5264E-23
  50585.789    0.4106E-23
  50585.848    0.6273E-23
  50585.907    0.9902E-23
  50585.966    0.1062E-22
  50586.025    0.8425E-23
  50586.084    0.2609E-23
  50586.143   -0.2456E-23
  50586.202   -0.5343E-23
  50586.261   -0.1037E-22
  50586.320   -0.1679E-22
  50586.379   -0.2035E-22
  50586.438   -0.2460E-22
  50586.497   -0.2742E-22
  50586.556   -0.2532E-22
  50586.615   -0.1897E-22
  50586.674   -0.9006E-23
  50586.733    0.2501E-23
  50586.792    0.5391E-23
  50586.851    0.1758E-23
  50586.910   -0.5460E-23
  50586.969   -0.7623E-23
  50587.028   -0.6198E-23
  50587.088   -0.6207E-23
  50587.147   -0.9085E-23
  50587.206   -0.1338E-22
  50587.265   -0.1125E-22
  50587.324   -0.4810E-23
  50587.383    0.9468E-24
  50587.442    0.6736E-23
  50587.501    0.4548E-23
  50587.560    0.3088E-23
  50587.619    0.1631E-23
  50587.678    0.4518E-23
  50587.737    0.9598E-23
  50587.796    0.9589E-23
  50587.855    0.7394E-23
  50587.914    0.1582E-23
  50587.973   -0.6354E-23
  50588.032   -0.8515E-23
  50588.091   -0.4937E-23
  50588.150    0.3715E-23
  50588.209    0.1390E-22
  50588.268    0.2050E-22
  50588.327    0.2123E-22
  50588.386    0.2122E-22
  50588.445    0.1974E-22
  50588.504    0.1826E-22
  50588.564    0.1604E-22
  50588.623    0.1018E-22
  50588.682    0.3627E-23
  50588.741    0.4342E-23
  50588.800    0.1088E-22
  50588.859    0.1233E-22
  50588.918    0.1452E-22
  50588.977    0.2112E-22
  50589.036    0.2480E-22
  50589.095    0.1963E-22
  50589.154    0.1155E-22
  50589.213    0.3539E-23
  50589.272    0.6337E-24
  50589.331   -0.1542E-23
  50589.390    0.4960E-23
  50589.449    0.1443E-22
  50589.508    0.1735E-22
  50589.567    0.1441E-22
  50589.626    0.4195E-23
  50589.685   -0.1601E-23
  50589.744   -0.5930E-23
  50589.803   -0.5939E-23
  50589.863   -0.5231E-23
  50589.922   -0.3082E-23
  50589.981    0.1963E-23
  50590.040   -0.2381E-23
  50590.099    0.6295E-23
  50590.158    0.1725E-22
  50590.217    0.1357E-22
  50590.276    0.1137E-22
  50590.335    0.1209E-22
  50590.394    0.1135E-22
  50590.453    0.6964E-23
  50590.512    0.6954E-23
  50590.571    0.8400E-23
  50590.630    0.9848E-23
  50590.689    0.6198E-23
  50590.748   -0.2498E-23
  50590.807   -0.8975E-23
  50590.866   -0.1399E-22
  50590.925   -0.2039E-22
  50590.984   -0.2394E-22
  50591.044   -0.2466E-22
  50591.103   -0.2678E-22
  50591.162   -0.2397E-22
  50591.221   -0.1547E-22
  50591.280   -0.1334E-22
  50591.339   -0.4037E-23
  50591.398    0.6807E-23
  50591.457    0.8253E-23
  50591.516    0.8243E-23
  50591.575    0.7506E-23
  50591.634    0.3138E-23
  50591.693    0.9555E-24
  50591.752    0.1669E-23
  50591.811    0.3108E-23
  50591.870    0.2031E-24
  50591.929   -0.6292E-23
  50591.988   -0.1132E-22
  50592.047   -0.1061E-22
  50592.106   -0.7757E-23
  50592.166   -0.5612E-23
  50592.225   -0.2022E-23
  50592.284    0.8116E-23
  50592.343    0.1102E-22
  50592.402    0.1101E-22
  50592.461    0.1027E-22
  50592.520    0.1173E-22
  50592.579    0.1464E-22
  50592.638    0.1171E-22
  50592.697    0.2237E-23
  50592.756   -0.1388E-23
  50592.815    0.5119E-23
  50592.874    0.6562E-23
  50592.933    0.5826E-23
  50592.992    0.1464E-23
  50593.051   -0.3601E-23
  50593.110   -0.5050E-23
  50593.169    0.7107E-24
  50593.229    0.6504E-23
  50593.288    0.7222E-23
  50593.347    0.5757E-23
  50593.406    0.1395E-23
  50593.465   -0.6130E-25
  50593.524   -0.7109E-25
  50593.583    0.3540E-23
  50593.642    0.1008E-22
  50593.701    0.7881E-23
  50593.760    0.6416E-23
  50593.819    0.5679E-23
  50593.878    0.7124E-23
  50593.937    0.7842E-23
  50593.996    0.7832E-23
  50594.055    0.6367E-23
  50594.114    0.4903E-23
  50594.173    0.4167E-23
  50594.233    0.1258E-23
  50594.292   -0.3086E-23
  50594.351   -0.9563E-23
  50594.410   -0.1029E-22
  50594.469   -0.3836E-23
  50594.528    0.2658E-23
  50594.587    0.4099E-23
  50594.646    0.1914E-23
  50594.705    0.3353E-23
  50594.764    0.1062E-22
  50594.823    0.8424E-23
  50594.882    0.5502E-23
  50594.941    0.4040E-23
  50595.000    0.4030E-23
  50595.059    0.7656E-23
  50595.118    0.8375E-23
  50595.177    0.8365E-23
  50595.237    0.1092E-23
  50595.296   -0.3252E-23
  50595.355   -0.3747E-24
  50595.414    0.1786E-23
  50595.473    0.3226E-23
  50595.532    0.3216E-23
  50595.591    0.6840E-23
  50595.650    0.1487E-22
  50595.709    0.1927E-22
  50595.768    0.2147E-22
  50595.827    0.1925E-22
  50595.886    0.1777E-22
  50595.945    0.2440E-22
  50596.004    0.2217E-22
  50596.063    0.2068E-22
  50596.123    0.2289E-22
  50596.182    0.1845E-22
  50596.241    0.1330E-22
  50596.300    0.8908E-23
  50596.359    0.9628E-23
  50596.418    0.8888E-23
  50596.477    0.1034E-22
  50596.536    0.1766E-22
  50596.595    0.2281E-22
  50596.654    0.2576E-22
  50596.713    0.2649E-22
  50596.772    0.2352E-22
  50596.831    0.2203E-22
  50596.890    0.2498E-22
  50596.949    0.2497E-22
  50597.009    0.1979E-22
  50597.068    0.1684E-22
  50597.127    0.1389E-22
  50597.186    0.1535E-22
  50597.245    0.1314E-22
  50597.304    0.1239E-22
  50597.363    0.1312E-22
  50597.422    0.1311E-22
  50597.481    0.1530E-22
  50597.540    0.1970E-22
  50597.599    0.2117E-22
  50597.658    0.1674E-22
  50597.717    0.1894E-22
  50597.776    0.2114E-22
  50597.835    0.1671E-22
  50597.895    0.9373E-23
  50597.954   -0.8272E-25
  50598.013   -0.4423E-23
  50598.072   -0.5873E-23
  50598.131   -0.5163E-23
  50598.190   -0.5173E-23
  50598.249   -0.3021E-23
  50598.308    0.1306E-23
  50598.367    0.7107E-23
  50598.426    0.1002E-22
  50598.485    0.1074E-22
  50598.544    0.7806E-23
  50598.603    0.7797E-23
  50598.662    0.1363E-22
  50598.722    0.1583E-22
  50598.781    0.1950E-22
  50598.840    0.2096E-22
  50598.899    0.1800E-22
  50598.958    0.1139E-22
  50599.017    0.9187E-23
  50599.076    0.9907E-23
  50599.135    0.1429E-22
  50599.194    0.1648E-22
  50599.253    0.1061E-22
  50599.312    0.8408E-23
  50599.371    0.7669E-23
  50599.430    0.3295E-23
  50599.490    0.3860E-24
  50599.549   -0.3473E-24
  50599.608   -0.3571E-24
  50599.667    0.3256E-23
  50599.726    0.8340E-23
  50599.785    0.1125E-22
  50599.844    0.9780E-23
  50599.903    0.3943E-23
  50599.962    0.3933E-23
  50600.021    0.1746E-23
  50600.080   -0.3325E-23
  50600.139   -0.4056E-23
  50600.198    0.3894E-23
  50600.258    0.1631E-22
  50600.317    0.2664E-22
  50600.376    0.2812E-22
  50600.435    0.2144E-22
  50600.494    0.1995E-22
  50600.553    0.1552E-22
  50600.612    0.8922E-23
  50600.671    0.8183E-23
  50600.730    0.8903E-23
  50600.789    0.8893E-23
  50600.848    0.1181E-22
  50600.907    0.1620E-22
  50600.966    0.1545E-22
  50601.026    0.1178E-22
  50601.085    0.1470E-22
  50601.144    0.1396E-22
  50601.203    0.9554E-23
  50601.262    0.5899E-23
  50601.321    0.8075E-23
  50601.380    0.1392E-22
  50601.439    0.1905E-22
  50601.498    0.2274E-22
  50601.557    0.2051E-22
  50601.616    0.1314E-22
  50601.675    0.6558E-23
  50601.735    0.1462E-23
  50601.794    0.1452E-23
  50601.853   -0.6119E-26
  50601.912   -0.1463E-23
  50601.971   -0.5800E-23
  50602.030   -0.1370E-22
  50602.089   -0.1656E-22
  50602.148   -0.1157E-22
  50602.207   -0.5119E-23
  50602.266   -0.1521E-23
  50602.325   -0.1531E-23
  50602.384   -0.2264E-23
  50602.444    0.2795E-23
  50602.503    0.9339E-23
  50602.562    0.1372E-22
  50602.621    0.1224E-22
  50602.680    0.8579E-23
  50602.739   -0.8768E-24
  50602.798   -0.8813E-23
  50602.857   -0.1026E-22
  50602.916   -0.1313E-22
  50602.975   -0.1171E-22
  50603.034   -0.1315E-22
  50603.093   -0.1459E-22
  50603.153   -0.1460E-22
  50603.212   -0.1032E-22
  50603.271   -0.3854E-23
  50603.330   -0.2513E-24
  50603.389    0.4630E-24
  50603.448   -0.2440E-23
  50603.507   -0.2450E-23
  50603.566   -0.3182E-23
  50603.625   -0.4634E-23
  50603.684   -0.6804E-23
  50603.743   -0.1112E-22
  50603.802   -0.2040E-22
  50603.862   -0.2396E-22
  50603.921   -0.2042E-22
  50603.980   -0.1259E-22
  50604.039   -0.4703E-23
  50604.098   -0.1102E-23
  50604.157    0.3355E-24
  50604.216    0.1775E-23
  50604.275    0.9775E-23
  50604.334    0.1710E-22
  50604.393    0.1488E-22
  50604.452    0.1267E-22
  50604.512    0.3178E-23
  50604.571   -0.7670E-23
  50604.630   -0.9835E-23
  50604.689   -0.4811E-23
  50604.748    0.2374E-24
  50604.807    0.1042E-22
  50604.866    0.1261E-22
  50604.925    0.8937E-23
  50604.984    0.3826E-23
  50605.043    0.2364E-23
  50605.102    0.5989E-23
  50605.162    0.6708E-23
  50605.221    0.3787E-23
  50605.280   -0.2022E-23
  50605.339   -0.7798E-23
  50605.398   -0.8526E-23
  50605.457   -0.5659E-23
  50605.516   -0.7108E-23
  50605.575   -0.2793E-23
  50605.634    0.2265E-23
  50605.693    0.6620E-23
  50605.752    0.1026E-22
  50605.812    0.1025E-22
  50605.871    0.1758E-22
  50605.930    0.2348E-22
  50605.989    0.2421E-22
  50606.048    0.2124E-22
  50606.107    0.1607E-22
  50606.166    0.1606E-22
  50606.225    0.2047E-22
  50606.284    0.1973E-22
  50606.343    0.2193E-22
  50606.403    0.2489E-22
  50606.462    0.1970E-22
  50606.521    0.2043E-22
  50606.580    0.2634E-22
  50606.639    0.3229E-22
  50606.698    0.3828E-22
  50606.757    0.4960E-22
  50606.816    0.6182E-22
  50606.875    0.7497E-22
  50606.934    0.8434E-22
  50606.993    0.9064E-22
  50607.053    0.9936E-22
  50607.112    0.1057E-21
  50607.171    0.1154E-21
  50607.230    0.1383E-21
  50607.289    0.1617E-21
  50607.348    0.1840E-21
  50607.407    0.1988E-21
  50607.466    0.2076E-21
  50607.525    0.2165E-21
  50607.584    0.2093E-21
  50607.644    0.1952E-21
  50607.703    0.1822E-21
  50607.762    0.1659E-21
  50607.821    0.1549E-21
  50607.880    0.1465E-21
  50607.939    0.1407E-21
  50607.998    0.1324E-21
  50608.057    0.1193E-21
  50608.116    0.1080E-21
  50608.175    0.9440E-22
  50608.235    0.8177E-22
  50608.294    0.7785E-22
  50608.353    0.7239E-22
  50608.412    0.6156E-22
  50608.471    0.5389E-22
  50608.530    0.5007E-22
  50608.589    0.4854E-22
  50608.648    0.4474E-22
  50608.707    0.3644E-22
  50608.766    0.2524E-22
  50608.826    0.1048E-22
  50608.885    0.1047E-22
  50608.944    0.1560E-22
  50609.003    0.2001E-22
  50609.062    0.2074E-22
  50609.121    0.2741E-22
  50609.180    0.3262E-22
  50609.239    0.3560E-22
  50609.298    0.3410E-22
  50609.357    0.2588E-22
  50609.417    0.1921E-22
  50609.476    0.1625E-22
  50609.535    0.1771E-22
  50609.594    0.1991E-22
  50609.653    0.1843E-22
  50609.712    0.1768E-22
  50609.771    0.1989E-22
  50609.830    0.2061E-22
  50609.889    0.1618E-22
  50609.949    0.1470E-22
  50610.008    0.1616E-22
  50610.067    0.1174E-22
  50610.126    0.1173E-22
  50610.185    0.8794E-23
  50610.244    0.8784E-23
  50610.303    0.5854E-23
  50610.362    0.3660E-23
  50610.421    0.5106E-23
  50610.481    0.7350E-24
  50610.540   -0.3618E-23
  50610.599   -0.5071E-23
  50610.658   -0.5081E-23
  50610.717   -0.8691E-23
  50610.776   -0.6542E-23
  50610.835    0.1402E-23
  50610.894    0.7215E-23
  50610.953    0.7935E-23
  50611.012    0.7195E-23
  50611.072    0.6456E-23
  50611.131    0.8637E-23
  50611.190    0.1082E-22
  50611.249    0.7156E-23
  50611.308    0.2776E-23
  50611.367   -0.1374E-24
  50611.426   -0.5209E-23
  50611.485   -0.9537E-23
  50611.544   -0.3785E-23
  50611.604    0.4910E-23
  50611.663    0.7087E-23
  50611.722    0.1073E-22
  50611.781    0.9992E-23
  50611.840    0.4870E-23
  50611.899    0.3405E-23
  50611.958    0.4851E-23
  50612.017    0.4841E-23
  50612.076    0.7749E-23
  50612.136    0.1360E-22
  50612.195    0.1727E-22
  50612.254    0.2169E-22
  50612.313    0.1725E-22
  50612.372    0.1577E-22
  50612.431    0.1944E-22
  50612.490    0.1354E-22
  50612.549    0.4753E-23
  50612.608    0.4743E-23
  50612.668    0.6191E-23
  50612.727    0.1203E-22
  50612.786    0.1643E-22
  50612.845    0.1348E-22
  50612.904    0.1568E-22
  50612.963    0.8332E-23
  50613.022    0.3218E-23
  50613.081    0.5393E-23
  50613.141    0.5383E-23
  50613.200    0.7562E-23
  50613.259    0.6822E-23
  50613.318    0.9736E-23
  50613.377    0.1119E-22
  50613.436    0.6793E-23
  50613.495    0.6783E-23
  50613.554    0.1483E-22
  50613.613    0.3113E-22
  50613.673    0.4391E-22
  50613.732    0.5684E-22
  50613.791    0.6683E-22
  50613.850    0.7381E-22
  50613.909    0.7614E-22
  50613.968    0.6680E-22
  50614.027    0.5297E-22
  50614.086    0.5296E-22
  50614.145    0.6061E-22
  50614.205    0.6214E-22
  50614.264    0.6136E-22
  50614.323    0.5827E-22
  50614.382    0.5367E-22
  50614.441    0.4378E-22
  50614.500    0.4453E-22
  50614.559    0.4907E-22
  50614.618    0.4906E-22
  50614.678    0.3846E-22
  50614.737    0.2871E-22
  50614.796    0.2572E-22
  50614.855    0.2126E-22
  50614.914    0.1534E-22
  50614.973    0.1607E-22
  50615.032    0.1975E-22
  50615.091    0.2419E-22
  50615.151    0.2789E-22
  50615.210    0.3012E-22
  50615.269    0.3086E-22
  50615.328    0.2712E-22
  50615.387    0.2117E-22
  50615.446    0.1231E-22
  50615.505    0.4990E-23
  50615.564    0.6439E-23
  50615.623    0.1302E-22
  50615.683    0.1890E-22
  50615.742    0.2408E-22
  50615.801    0.2184E-22
  50615.860    0.1887E-22
  50615.919    0.1444E-22
  50615.978    0.1738E-22
  50616.037    0.2626E-22
  50616.096    0.3447E-22
  50616.156    0.3746E-22
  50616.215    0.3595E-22
  50616.274    0.3294E-22
  50616.333    0.2994E-22
  50616.392    0.3292E-22
  50616.451    0.3516E-22
  50616.510    0.3065E-22
  50616.569    0.2840E-22
  50616.629    0.2393E-22
  50616.688    0.2095E-22
  50616.747    0.1725E-22
  50616.806    0.1798E-22
  50616.865    0.2463E-22
  50616.924    0.3133E-22
  50616.983    0.3132E-22
  50617.042    0.2982E-22
  50617.102    0.3430E-22
  50617.161    0.3729E-22
  50617.220    0.3803E-22
  50617.279    0.3427E-22
  50617.338    0.2902E-22
  50617.397    0.1862E-22
  50617.456    0.1198E-22
  50617.515    0.1197E-22
  50617.575    0.1417E-22
  50617.634    0.1122E-22
  50617.693    0.9009E-23
  50617.752    0.1046E-22
  50617.811    0.1045E-22
  50617.870    0.5326E-23
  50617.929    0.8970E-23
  50617.989    0.6036E-23
  50618.048    0.9291E-24
  50618.107   -0.1258E-23
  50618.166   -0.1267E-23
  50618.225    0.3081E-23
  50618.284    0.3799E-23
  50618.343    0.5247E-23
  50618.402    0.1109E-22
  50618.462    0.1475E-22
  50618.521    0.1474E-22
  50618.580    0.1400E-22
  50618.639    0.1252E-22
  50618.698    0.8842E-23
  50618.757    0.4449E-23
  50618.816    0.2255E-23
  50618.875    0.8081E-23
  50618.935    0.1615E-22
  50618.994    0.1983E-22
  50619.053    0.1908E-22
  50619.112    0.2129E-22
  50619.171    0.2648E-22
  50619.230    0.2573E-22
  50619.289    0.2572E-22
  50619.349    0.1903E-22
  50619.408    0.1166E-22
  50619.467    0.7982E-23
  50619.526    0.5051E-23
  50619.585    0.5770E-23
  50619.644    0.8684E-23
  50619.703    0.1381E-22
  50619.762    0.1601E-22
  50619.822    0.1969E-22
  50619.881    0.2711E-22
  50619.940    0.3158E-22
  50619.999    0.3157E-22
  50620.058    0.2559E-22
  50620.117    0.1964E-22
  50620.176    0.1816E-22
  50620.236    0.2259E-22
  50620.295    0.2481E-22
  50620.354    0.2034E-22
  50620.413    0.1664E-22
  50620.472    0.1368E-22
  50620.531    0.1147E-22
  50620.590    0.1293E-22
  50620.649    0.1586E-22
  50620.709    0.1733E-22
  50620.768    0.1732E-22
  50620.827    0.1215E-22
  50620.886    0.9210E-23
  50620.945    0.8468E-23
  50621.004    0.5534E-23
  50621.063    0.1881E-23
  50621.123    0.4178E-24
  50621.182    0.2589E-23
  50621.241    0.3308E-23
  50621.300   -0.3237E-23
  50621.359   -0.9741E-23
  50621.418   -0.1262E-22
  50621.477   -0.4713E-23
  50621.537    0.7638E-23
  50621.596    0.1350E-22
  50621.655    0.1570E-22
  50621.714    0.1790E-22
  50621.773    0.1641E-22
  50621.832    0.1640E-22
  50621.891    0.1566E-22
  50621.951    0.1491E-22
  50622.010    0.2081E-22
  50622.069    0.3048E-22
  50622.128    0.2525E-22
  50622.187    0.7530E-23
  50622.246   -0.4841E-23
  50622.305   -0.5574E-23
  50622.365   -0.2690E-23
  50622.424    0.1655E-23
  50622.483    0.7481E-23
  50622.542    0.9668E-23
  50622.601    0.9658E-23
  50622.660    0.8915E-23
  50622.719    0.8173E-23
  50622.779    0.1256E-22
  50622.838    0.1403E-22
  50622.897    0.1328E-22
  50622.956    0.1695E-22
  50623.015    0.1990E-22
  50623.074    0.1399E-22
  50623.133    0.1104E-22
  50623.193    0.1470E-22
  50623.252    0.1469E-22
  50623.311    0.1911E-22
  50623.370    0.1836E-22
  50623.429    0.2132E-22
  50623.488    0.2056E-22
  50623.547    0.1981E-22
  50623.607    0.2723E-22
  50623.666    0.2797E-22
  50623.725    0.3020E-22
  50623.784    0.3619E-22
  50623.843    0.3318E-22
  50623.902    0.3017E-22
  50623.961    0.2867E-22
  50624.021    0.2048E-22
  50624.080    0.1382E-22
  50624.139    0.1160E-22
  50624.198    0.1306E-22
  50624.257    0.1600E-22
  50624.316    0.1821E-22
  50624.375    0.2636E-22
  50624.435    0.3083E-22
  50624.494    0.2858E-22
  50624.553    0.1891E-22
  50624.612    0.2409E-22
  50624.671    0.3154E-22
  50624.730    0.2258E-22
  50624.789    0.1370E-22
  50624.849    0.1149E-22
  50624.908    0.8541E-23
  50624.967    0.9264E-23
  50625.026    0.1146E-22
  50625.085    0.1071E-22
  50625.144    0.4846E-23
  50625.204    0.4106E-23
  50625.263    0.3367E-23
  50625.322   -0.2458E-23
  50625.381   -0.2907E-24
  50625.440    0.1153E-23
  50625.499   -0.3212E-23
  50625.558   -0.2497E-23
  50625.618    0.1851E-23
  50625.677    0.8413E-23
  50625.736    0.1060E-22
  50625.795    0.9860E-23
  50625.854    0.6920E-23
  50625.913    0.9107E-23
  50625.973    0.1277E-22
  50626.032    0.1571E-22
  50626.091    0.1570E-22
  50626.150    0.1200E-22
  50626.209    0.1273E-22
  50626.268    0.1125E-22
  50626.327    0.1345E-22
  50626.387    0.1565E-22
  50626.446    0.1785E-22
  50626.505    0.1121E-22
  50626.564    0.6070E-23
  50626.623    0.1684E-23
  50626.682   -0.5072E-24
  50626.742   -0.1969E-23
  50626.801   -0.5599E-23
  50626.860   -0.1263E-23
  50626.919    0.5281E-23
  50626.978    0.3811E-23
  50627.037   -0.1292E-23
  50627.096   -0.4925E-23
  50627.156   -0.4935E-23
  50627.215   -0.2048E-23
  50627.274    0.4491E-23
  50627.333    0.1401E-22
  50627.392    0.1917E-22
  50627.451    0.1916E-22
  50627.511    0.1546E-22
  50627.570    0.1030E-22
  50627.629    0.1102E-22
  50627.688    0.1322E-22
  50627.747    0.1027E-22
  50627.806    0.5864E-23
  50627.865    0.1098E-22
  50627.925    0.1539E-22
  50627.984    0.1391E-22
  50628.043    0.1169E-22
  50628.102    0.1315E-22
  50628.161    0.1831E-22
  50628.220    0.1830E-22
  50628.280    0.1607E-22
  50628.339    0.1532E-22
  50628.398    0.1016E-22
  50628.457    0.5025E-23
  50628.516   -0.8584E-25
  50628.575   -0.1548E-23
  50628.635   -0.5181E-23
  50628.694   -0.1568E-23
  50628.753    0.2786E-23
  50628.812    0.1009E-22
  50628.871    0.1523E-22
  50628.930    0.1966E-22
  50628.989    0.2485E-22
  50629.049    0.2633E-22
  50629.108    0.2260E-22
  50629.167    0.1814E-22
  50629.226    0.1591E-22
  50629.285    0.1590E-22
  50629.344    0.1368E-22
  50629.404    0.2106E-22
  50629.463    0.3149E-22
  50629.522    0.3976E-22
  50629.581    0.4202E-22
  50629.640    0.3974E-22
  50629.699    0.3822E-22
  50629.759    0.3896E-22
  50629.818    0.3519E-22
  50629.877    0.3367E-22
  50629.936    0.2842E-22
  50629.995    0.2617E-22
  50630.054    0.1947E-22
  50630.114    0.1576E-22
  50630.173    0.1575E-22
  50630.232    0.2315E-22
  50630.291    0.3436E-22
  50630.350    0.3811E-22
  50630.409    0.3434E-22
  50630.469    0.3358E-22
  50630.528    0.2832E-22
  50630.587    0.2384E-22
  50630.646    0.1789E-22
  50630.705    0.6112E-23
  50630.764   -0.2638E-23
  50630.824   -0.2648E-23
  50630.883    0.3891E-23
  50630.942    0.9737E-23
  50631.001    0.1340E-22
  50631.060    0.1561E-22
  50631.119    0.1486E-22
  50631.179    0.2151E-22
  50631.238    0.2373E-22
  50631.297    0.2521E-22
  50631.356    0.2297E-22
  50631.415    0.1776E-22
  50631.474    0.1112E-22
  50631.534    0.8904E-23
  50631.593    0.7428E-23
  50631.652    0.7419E-23
  50631.711    0.1181E-22
  50631.770    0.1697E-22
  50631.829    0.2437E-22
  50631.889    0.3184E-22
  50631.948    0.3709E-22
  50632.007    0.3032E-22
  50632.066    0.2285E-22
  50632.125    0.1765E-22
  50632.184    0.1468E-22
  50632.244    0.9520E-23
  50632.303    0.5846E-23
  50632.362    0.7300E-23
  50632.421    0.1612E-22
  50632.480    0.1981E-22
  50632.539    0.1832E-22
  50632.599    0.1683E-22
  50632.658    0.1682E-22
  50632.717    0.1385E-22
  50632.776    0.1090E-22
  50632.835    0.1384E-22
  50632.895    0.2345E-22
  50632.954    0.3016E-22
  50633.013    0.3691E-22
  50633.072    0.3917E-22
  50633.131    0.3614E-22
  50633.190    0.3463E-22
  50633.250    0.3236E-22
  50633.309    0.3010E-22
  50633.368    0.2337E-22
  50633.427    0.1965E-22
  50633.486    0.1816E-22
  50633.545    0.2260E-22
  50633.605    0.2930E-22
  50633.664    0.3530E-22
  50633.723    0.3680E-22
  50633.782    0.3528E-22
  50633.841    0.3452E-22
  50633.900    0.3000E-22
  50633.960    0.2105E-22
  50634.019    0.1364E-22
  50634.078    0.1363E-22
  50634.137    0.1657E-22
  50634.196    0.2771E-22
  50634.256    0.3746E-22
  50634.315    0.3745E-22
  50634.374    0.3669E-22
  50634.433    0.3291E-22
  50634.492    0.3366E-22
  50634.551    0.4043E-22
  50634.611    0.4421E-22
  50634.670    0.4117E-22
  50634.729    0.3136E-22
  50634.788    0.2165E-22
  50634.847    0.1645E-22
  50634.906    0.1792E-22
  50634.966    0.2162E-22
  50635.025    0.2310E-22
  50635.084    0.2160E-22
  50635.143    0.1937E-22
  50635.202    0.1418E-22
  50635.262    0.6817E-23
  50635.321    0.2422E-23
  50635.380    0.6798E-23
  50635.439    0.1046E-22
  50635.498    0.1265E-22
  50635.557    0.1560E-22
  50635.617    0.2300E-22
  50635.676    0.2821E-22
  50635.735    0.3045E-22
  50635.794    0.2969E-22
  50635.853    0.2669E-22
  50635.913    0.2892E-22
  50635.972    0.3266E-22
  50636.031    0.3641E-22
  50636.090    0.3942E-22
  50636.149    0.4472E-22
  50636.208    0.4927E-22
  50636.268    0.4850E-22
  50636.327    0.4241E-22
  50636.386    0.3937E-22
  50636.445    0.3559E-22
  50636.504    0.3032E-22
  50636.564    0.2956E-22
  50636.623    0.3405E-22
  50636.682    0.4159E-22
  50636.741    0.4842E-22
  50636.800    0.6146E-22
  50636.859    0.7937E-22
  50636.919    0.9121E-22
  50636.978    0.9279E-22
  50637.037    0.9358E-22
  50637.096    0.9118E-22
  50637.155    0.8483E-22
  50637.215    0.8403E-22
  50637.274    0.9513E-22
  50637.333    0.1088E-21
  50637.392    0.1267E-21
  50637.451    0.1458E-21
  50637.510    0.1669E-21
  50637.570    0.1938E-21
  50637.629    0.2267E-21
  50637.688    0.2664E-21
  50637.747    0.3047E-21
  50637.806    0.3425E-21
  50637.866    0.4106E-21
  50637.925    0.4592E-21
  50637.984    0.4987E-21
  50638.043    0.5257E-21
  50638.102    0.5309E-21
  50638.162    0.5218E-21
  50638.221    0.5060E-21
  50638.280    0.4815E-21
  50638.339    0.4517E-21
  50638.398    0.4165E-21
  50638.457    0.3922E-21
  50638.517    0.3546E-21
  50638.576    0.3174E-21
  50638.635    0.2852E-21
  50638.694    0.2578E-21
  50638.753    0.2256E-21
  50638.813    0.1953E-21
  50638.872    0.1710E-21
  50638.931    0.1506E-21
  50638.990    0.1363E-21
  50639.049    0.1281E-21
  50639.109    0.1174E-21
  50639.168    0.1085E-21
  50639.227    0.1044E-21
  50639.286    0.9559E-22
  50639.345    0.8289E-22
  50639.405    0.7267E-22
  50639.464    0.6799E-22
  50639.523    0.6410E-22
  50639.582    0.5560E-22
  50639.641    0.4718E-22
  50639.700    0.4185E-22
  50639.760    0.4108E-22
  50639.819    0.4486E-22
  50639.878    0.5019E-22
  50639.937    0.5324E-22
  50639.996    0.4712E-22
  50640.056    0.4103E-22
  50640.115    0.4254E-22
  50640.174    0.4405E-22
  50640.233    0.4708E-22
  50640.292    0.4783E-22
  50640.352    0.4554E-22
  50640.411    0.3794E-22
  50640.470    0.3341E-22
  50640.529    0.2965E-22
  50640.588    0.2068E-22
  50640.648    0.2142E-22
  50640.707    0.2513E-22
  50640.766    0.2662E-22
  50640.825    0.3712E-22
  50640.884    0.4089E-22
  50640.944    0.3861E-22
  50641.003    0.3257E-22
  50641.062    0.2433E-22
  50641.121    0.2060E-22
  50641.180    0.2059E-22
  50641.240    0.2281E-22
  50641.299    0.2429E-22
  50641.358    0.2279E-22
  50641.417    0.2129E-22
  50641.476    0.1240E-22
  50641.536    0.8706E-23
  50641.595    0.1090E-22
  50641.654    0.1163E-22
  50641.713    0.1015E-22
  50641.772    0.1161E-22
  50641.832    0.1307E-22
  50641.891    0.1602E-22
  50641.950    0.1971E-22
  50642.009    0.2193E-22
  50642.068    0.1821E-22
  50642.128    0.2266E-22
  50642.187    0.2190E-22
  50642.246    0.2338E-22
  50642.305    0.3235E-22
  50642.364    0.4216E-22
  50642.424    0.4977E-22
  50642.483    0.5129E-22
  50642.542    0.5281E-22
  50642.601    0.5818E-22
  50642.660    0.6203E-22
  50642.720    0.6047E-22
  50642.779    0.5815E-22
  50642.838    0.5814E-22
  50642.897    0.6509E-22
  50642.956    0.7914E-22
  50643.016    0.9258E-22
  50643.075    0.1143E-21
  50643.134    0.1307E-21
  50643.193    0.1515E-21
  50643.252    0.1703E-21
  50643.312    0.1876E-21
  50643.371    0.2078E-21
  50643.430    0.2230E-21
  50643.489    0.2321E-21
  50643.548    0.2330E-21
  50643.608    0.2266E-21
  50643.667    0.2158E-21
  50643.726    0.2042E-21
  50643.785    0.1954E-21
  50643.844    0.1857E-21
  50643.904    0.1710E-21
  50643.963    0.1565E-21
  50644.022    0.1455E-21
  50644.081    0.1372E-21
  50644.140    0.1338E-21
  50644.200    0.1280E-21
  50644.259    0.1280E-21
  50644.318    0.1214E-21
  50644.377    0.1092E-21
  50644.436    0.9713E-22
  50644.496    0.8756E-22
  50644.555    0.7730E-22
  50644.614    0.6791E-22
  50644.673    0.6092E-22
  50644.732    0.5782E-22
  50644.792    0.5858E-22
  50644.851    0.5626E-22
  50644.910    0.4935E-22
  50644.969    0.4553E-22
  50645.028    0.5010E-22
  50645.088    0.5622E-22
  50645.147    0.5314E-22
  50645.206    0.4245E-22
  50645.265    0.3638E-22
  50645.325    0.3035E-22
  50645.384    0.2063E-22
  50645.443    0.8789E-23
  50645.502   -0.1461E-23
  50645.561    0.7149E-24
  50645.621    0.1392E-22
  50645.680    0.2505E-22
  50645.739    0.3404E-22
  50645.798    0.3780E-22
  50645.857    0.3101E-22
  50645.917    0.2426E-22
  50645.976    0.2724E-22
  50646.035    0.2948E-22
  50646.094    0.2947E-22
  50646.153    0.3171E-22
  50646.213    0.3095E-22
  50646.272    0.3244E-22
  50646.331    0.4150E-22
  50646.390    0.4225E-22
  50646.450    0.3769E-22
  50646.509    0.2491E-22
  50646.568    0.1524E-22
  50646.627    0.1080E-22
  50646.686    0.1374E-22
  50646.746    0.2413E-22
  50646.805    0.3236E-22
  50646.864    0.2635E-22
  50646.923    0.1889E-22
  50646.982    0.1813E-22
  50647.042    0.2258E-22
  50647.101    0.2332E-22
  50647.160    0.1662E-22
  50647.219    0.7758E-23
  50647.279    0.3350E-23
  50647.338    0.1148E-23
  50647.397    0.4062E-23
  50647.456    0.2589E-23
  50647.515    0.2580E-23
  50647.575    0.4765E-23
  50647.634    0.1284E-22
  50647.693    0.1876E-22
  50647.752    0.2321E-22
  50647.811    0.3068E-22
  50647.871    0.3595E-22
  50647.930    0.3669E-22
  50647.989    0.3819E-22
  50648.048    0.2989E-22
  50648.108    0.1869E-22
  50648.167    0.6866E-23
  50648.226    0.2461E-23
  50648.285   -0.4686E-24
  50648.344    0.3172E-23
  50648.404    0.1198E-22
  50648.463    0.1714E-22
  50648.522    0.1122E-22
  50648.581    0.4597E-23
  50648.640    0.9310E-24
  50648.700    0.1914E-24
  50648.759    0.9112E-24
  50648.818    0.6023E-23
  50648.877    0.1042E-22
  50648.937    0.1410E-22
  50648.996    0.1854E-22
  50649.055    0.1927E-22
  50649.114    0.1481E-22
  50649.173    0.1037E-22
  50649.233    0.1332E-22
  50649.292    0.1257E-22
  50649.351    0.9609E-23
  50649.410    0.2263E-23
  50649.470    0.6296E-25
  50649.529   -0.6761E-24
  50649.588    0.4320E-25
  50649.647    0.8823E-23
  50649.706    0.1694E-22
  50649.766    0.2213E-22
  50649.825    0.2212E-22
  50649.884    0.1913E-22
  50649.943    0.1764E-22
  50650.003    0.1245E-22
  50650.062    0.8754E-23
  50650.121    0.8744E-23
  50650.180    0.1021E-22
  50650.239    0.1093E-22
  50650.299    0.1388E-22
  50650.358    0.1905E-22
  50650.417    0.2575E-22
  50650.476    0.2276E-22
  50650.536    0.1754E-22
  50650.595    0.1679E-22
  50650.654    0.1901E-22
  50650.713    0.1307E-22
  50650.772    0.1305E-23
  50650.832   -0.7433E-23
  50650.891   -0.9614E-23
  50650.950   -0.6728E-23
  50651.009    0.1266E-23
  50651.069    0.4182E-23
  50651.128    0.8576E-23
  50651.187    0.1004E-22
  50651.246    0.7086E-23
  50651.305    0.1002E-22
  50651.365    0.8537E-23
  50651.424    0.1443E-22
  50651.483    0.2333E-22
  50651.542    0.2631E-22
  50651.602    0.3231E-22
  50651.661    0.3004E-22
  50651.720    0.2479E-22
  50651.779    0.1956E-22
  50651.839    0.1807E-22
  50651.898    0.1806E-22
  50651.957    0.2102E-22
  50652.016    0.2325E-22
  50652.075    0.1580E-22
  50652.135    0.9881E-23
  50652.194    0.3994E-23
  50652.253    0.3252E-23
  50652.312    0.6174E-23
  50652.372    0.1132E-22
  50652.431    0.2020E-22
  50652.490    0.2391E-22
  50652.549    0.2018E-22
  50652.608    0.2017E-22
  50652.668    0.1867E-22
  50652.727    0.1495E-22
  50652.786    0.2088E-22
  50652.845    0.3285E-22
  50652.905    0.4420E-22
  50652.964    0.4877E-22
  50653.023    0.4647E-22
  50653.082    0.3659E-22
  50653.142    0.1711E-22
  50653.201   -0.5597E-24
  50653.260   -0.9286E-23
  50653.319   -0.5673E-23
  50653.378   -0.5894E-24
  50653.438    0.1335E-22
  50653.497    0.2375E-22
  50653.556    0.2973E-22
  50653.615    0.2373E-22
  50653.675    0.1850E-22
  50653.734    0.1998E-22
  50653.793    0.2295E-22
  50653.852    0.2518E-22
  50653.912    0.2967E-22
  50653.971    0.2891E-22
  50654.030    0.1919E-22
  50654.089    0.1546E-22
  50654.149    0.1471E-22
  50654.208    0.1322E-22
  50654.267    0.1026E-22
  50654.326    0.9515E-23
  50654.385    0.8769E-23
  50654.445    0.8023E-23
  50654.504    0.8013E-23
  50654.563    0.1021E-22
  50654.622    0.1389E-22
  50654.682    0.2280E-22
  50654.741    0.3103E-22
  50654.800    0.3403E-22
  50654.859    0.3327E-22
  50654.919    0.2875E-22
  50654.978    0.2052E-22
  50655.037    0.1902E-22
  50655.096    0.1975E-22
  50655.156    0.2946E-22
  50655.215    0.3548E-22
  50655.274    0.3622E-22
  50655.333    0.3169E-22
  50655.392    0.2942E-22
  50655.452    0.2491E-22
  50655.511    0.1449E-22
  50655.570    0.7100E-23
  50655.629    0.4887E-23
  50655.689    0.7080E-23
  50655.748    0.1075E-22
  50655.807    0.1000E-22
  50655.866    0.1073E-22
  50655.926    0.1442E-22
  50655.985    0.1886E-22
  50656.044    0.2034E-22
  50656.103    0.2331E-22
  50656.163    0.3155E-22
  50656.222    0.3304E-22
  50656.281    0.2702E-22
  50656.340    0.1880E-22
  50656.400    0.6226E-23
  50656.459   -0.5471E-23
  50656.518   -0.6933E-23
  50656.577   -0.6217E-23
  50656.637   -0.5501E-23
  50656.696    0.3167E-24
  50656.755    0.6902E-23
  50656.814    0.1131E-22
  50656.873    0.1945E-22
  50656.933    0.2691E-22
  50656.992    0.3141E-22
  50657.051    0.3592E-22
  50657.110    0.3591E-22
  50657.170    0.3138E-22
  50657.229    0.2536E-22
  50657.288    0.2610E-22
  50657.347    0.2684E-22
  50657.407    0.3134E-22
  50657.466    0.3058E-22
  50657.525    0.3057E-22
  50657.584    0.2980E-22
  50657.644    0.2829E-22
  50657.703    0.2529E-22
  50657.762    0.2453E-22
  50657.821    0.3655E-22
  50657.881    0.4566E-22
  50657.940    0.4184E-22
  50657.999    0.3426E-22
  50658.058    0.3425E-22
  50658.118    0.3424E-22
  50658.177    0.3423E-22
  50658.236    0.3346E-22
  50658.295    0.2893E-22
  50658.355    0.1921E-22
  50658.414    0.1326E-22
  50658.473    0.1399E-22
  50658.532    0.1621E-22
  50658.592    0.2289E-22
  50658.651    0.2513E-22
  50658.710    0.2887E-22
  50658.769    0.3186E-22
  50658.829    0.2211E-22
  50658.888    0.1912E-22
  50658.947    0.1985E-22
  50659.006    0.1910E-22
  50659.066    0.2207E-22
  50659.125    0.2131E-22
  50659.184    0.1684E-22
  50659.243    0.1609E-22
  50659.303    0.1682E-22
  50659.362    0.1681E-22
  50659.421    0.1680E-22
  50659.480    0.1382E-22
  50659.540    0.1381E-22
  50659.599    0.1603E-22
  50659.658    0.1676E-22
  50659.717    0.1749E-22
  50659.777    0.1600E-22
  50659.836    0.1228E-22
  50659.895    0.6377E-23
  50659.954    0.5032E-24
  50660.014    0.1956E-23
  50660.073    0.1447E-22
  50660.132    0.2488E-22
  50660.191    0.3087E-22
  50660.251    0.3162E-22
  50660.310    0.3387E-22
  50660.369    0.3235E-22
  50660.428    0.3008E-22
  50660.488    0.2782E-22
  50660.547    0.3307E-22
  50660.606    0.3609E-22
  50660.665    0.3532E-22
  50660.725    0.4062E-22
  50660.784    0.4137E-22
  50660.843    0.3908E-22
  50660.902    0.3679E-22
  50660.962    0.4438E-22
  50661.021    0.5280E-22
  50661.080    0.5664E-22
  50661.139    0.6282E-22
  50661.199    0.6982E-22
  50661.258    0.6825E-22
  50661.317    0.6124E-22
  50661.376    0.5736E-22
  50661.436    0.5350E-22
  50661.495    0.5195E-22
  50661.554    0.5502E-22
  50661.613    0.5501E-22
  50661.673    0.5423E-22
  50661.732    0.6117E-22
  50661.791    0.6738E-22
  50661.850    0.7206E-22
  50661.910    0.7597E-22
  50661.969    0.8544E-22
  50662.028    0.9100E-22
  50662.087    0.9820E-22
  50662.147    0.1054E-21
  50662.206    0.1160E-21
  50662.265    0.1193E-21
  50662.325    0.1234E-21
  50662.384    0.1291E-21
  50662.443    0.1333E-21
  50662.502    0.1399E-21
  50662.562    0.1492E-21
  50662.621    0.1679E-21
  50662.680    0.1896E-21
  50662.739    0.2180E-21
  50662.799    0.2575E-21
  50662.858    0.3054E-21
  50662.917    0.3639E-21
  50662.976    0.4164E-21
  50663.036    0.4835E-21
  50663.095    0.5641E-21
  50663.154    0.6920E-21
  50663.213    0.8027E-21
  50663.273    0.9105E-21
  50663.332    0.9886E-21
  50663.391    0.1034E-20
  50663.450    0.1042E-20
  50663.510    0.1026E-20
  50663.569    0.9891E-21
  50663.628    0.9348E-21
  50663.687    0.8630E-21
  50663.747    0.7854E-21
  50663.806    0.7107E-21
  50663.865    0.6729E-21
  50663.925    0.6092E-21
  50663.984    0.5424E-21
  50664.043    0.4801E-21
  50664.102    0.4264E-21
  50664.162    0.3721E-21
  50664.221    0.3240E-21
  50664.280    0.2743E-21
  50664.339    0.2323E-21
  50664.399    0.2097E-21
  50664.458    0.1946E-21
  50664.517    0.1823E-21
  50664.576    0.1684E-21
  50664.636    0.1488E-21
  50664.695    0.1321E-21
  50664.754    0.1164E-21
  50664.813    0.1058E-21
  50664.873    0.1009E-21
  50664.932    0.9451E-22
  50664.991    0.9130E-22
  50665.051    0.8651E-22
  50665.110    0.8096E-22
  50665.169    0.8095E-22
  50665.228    0.8887E-22
  50665.288    0.9205E-22
  50665.347    0.9765E-22
  50665.406    0.1025E-21
  50665.465    0.9843E-22
  50665.525    0.8882E-22
  50665.584    0.7457E-22
  50665.643    0.6440E-22
  50665.703    0.5664E-22
  50665.762    0.4893E-22
  50665.821    0.4510E-22
  50665.880    0.4356E-22
  50665.940    0.3898E-22
  50665.999    0.3746E-22
  50666.058    0.3897E-22
  50666.117    0.3668E-22
  50666.177    0.3819E-22
  50666.236    0.3515E-22
  50666.295    0.3211E-22
  50666.354    0.3437E-22
  50666.414    0.3891E-22
  50666.473    0.5265E-22
  50666.532    0.6737E-22
  50666.592    0.8071E-22
  50666.651    0.8625E-22
  50666.710    0.9341E-22
  50666.769    0.9260E-22
  50666.829    0.9259E-22
  50666.888    0.8939E-22
  50666.947    0.9337E-22
  50667.006    0.1030E-21
  50667.066    0.1193E-21
  50667.125    0.1325E-21
  50667.184    0.1442E-21
  50667.244    0.1628E-21
  50667.303    0.1844E-21
  50667.362    0.2092E-21
  50667.421    0.2419E-21
  50667.481    0.2814E-21
  50667.540    0.3305E-21
  50667.599    0.3799E-21
  50667.658    0.4380E-21
  50667.718    0.4984E-21
  50667.777    0.5466E-21
  50667.836    0.5735E-21
  50667.896    0.5811E-21
  50667.955    0.5736E-21
  50668.014    0.5509E-21
  50668.073    0.5161E-21
  50668.133    0.4789E-21
  50668.192    0.4474E-21
  50668.251    0.4112E-21
  50668.310    0.3819E-21
  50668.370    0.3486E-21
  50668.429    0.3163E-21
  50668.488    0.2899E-21
  50668.548    0.2631E-21
  50668.607    0.2435E-21
  50668.666    0.2279E-21
  50668.725    0.2089E-21
  50668.785    0.1912E-21
  50668.844    0.1703E-21
  50668.903    0.1523E-21
  50668.962    0.1405E-21
  50669.022    0.1313E-21
  50669.081    0.1181E-21
  50669.140    0.1051E-21
  50669.200    0.9220E-22
  50669.259    0.8264E-22
  50669.318    0.7631E-22
  50669.377    0.7394E-22
  50669.437    0.7236E-22
  50669.496    0.6921E-22
  50669.555    0.6608E-22
  50669.615    0.6218E-22
  50669.674    0.5984E-22
  50669.733    0.5674E-22
  50669.792    0.5441E-22
  50669.852    0.5517E-22
  50669.911    0.6291E-22
  50669.970    0.6679E-22
  50670.030    0.7934E-22
  50670.089    0.8567E-22
  50670.148    0.8090E-22
  50670.207    0.6910E-22
  50670.267    0.6129E-22
  50670.326    0.5432E-22
  50670.385    0.4816E-22
  50670.444    0.4051E-22
  50670.504    0.3822E-22
  50670.563    0.3518E-22
  50670.622    0.3668E-22
  50670.682    0.4200E-22
  50670.741    0.4504E-22
  50670.800    0.4274E-22
  50670.859    0.4197E-22
  50670.919    0.3739E-22
  50670.978    0.3663E-22
  50671.037    0.3737E-22
  50671.097    0.4193E-22
  50671.156    0.4344E-22
  50671.215    0.4038E-22
  50671.274    0.3582E-22
  50671.334    0.2826E-22
  50671.393    0.2001E-22
  50671.452    0.1702E-22
  50671.512    0.1775E-22
  50671.571    0.2297E-22
  50671.630    0.2746E-22
  50671.689    0.2820E-22
  50671.749    0.2894E-22
  50671.808    0.3649E-22
  50671.867    0.4104E-22
  50671.927    0.4331E-22
  50671.986    0.4330E-22
  50672.045    0.4101E-22
  50672.104    0.3265E-22
  50672.164    0.1988E-22
  50672.223    0.1095E-22
  50672.282    0.9465E-23
  50672.342    0.1316E-22
  50672.401    0.2133E-22
  50672.460    0.2807E-22
  50672.519    0.3561E-22
  50672.579    0.4626E-22
  50672.638    0.5162E-22
  50672.697    0.4701E-22
  50672.757    0.4394E-22
  50672.816    0.4393E-22
  50672.875    0.4621E-22
  50672.934    0.4773E-22
  50672.994    0.4313E-22
  50673.053    0.3552E-22
  50673.112    0.2871E-22
  50673.172    0.2720E-22
  50673.231    0.3322E-22
  50673.290    0.3776E-22
  50673.350    0.3927E-22
  50673.409    0.3926E-22
  50673.468    0.3621E-22
  50673.527    0.3544E-22
  50673.587    0.3923E-22
  50673.646    0.4302E-22
  50673.705    0.3845E-22
  50673.765    0.3540E-22
  50673.824    0.3615E-22
  50673.883    0.3994E-22
  50673.942    0.4603E-22
  50674.002    0.4755E-22
  50674.061    0.4754E-22
  50674.120    0.4907E-22
  50674.180    0.3761E-22
  50674.239    0.2103E-22
  50674.298    0.1505E-22
  50674.357    0.1208E-22
  50674.417    0.6894E-23
  50674.476    0.2707E-24
  50674.535   -0.4125E-23
  50674.595   -0.3405E-23
  50674.654    0.6854E-23
  50674.713    0.1647E-22
  50674.773    0.2019E-22
  50674.832    0.2392E-22
  50674.891    0.2466E-22
  50674.950    0.2091E-22
  50675.010    0.1568E-22
  50675.069    0.1344E-22
  50675.128    0.2387E-22
  50675.188    0.3744E-22
  50675.247    0.4505E-22
  50675.306    0.4504E-22
  50675.365    0.3513E-22
  50675.425    0.2232E-22
  50675.484    0.1634E-22
  50675.543    0.2305E-22
  50675.603    0.3965E-22
  50675.662    0.4804E-22
  50675.721    0.4880E-22
  50675.781    0.3962E-22
  50675.840    0.2600E-22
  50675.899    0.2524E-22
  50675.958    0.2673E-22
  50676.018    0.2672E-22
  50676.077    0.2596E-22
  50676.136    0.2370E-22
  50676.196    0.2745E-22
  50676.255    0.3347E-22
  50676.314    0.4105E-22
  50676.374    0.4563E-22
  50676.433    0.3875E-22
  50676.492    0.2815E-22
  50676.551    0.2288E-22
  50676.611    0.2362E-22
  50676.670    0.2737E-22
  50676.729    0.3112E-22
  50676.789    0.3490E-22
  50676.848    0.3944E-22
  50676.907    0.3867E-22
  50676.967    0.3487E-22
  50677.026    0.2957E-22
  50677.085    0.3182E-22
  50677.144    0.3181E-22
  50677.204    0.2728E-22
  50677.263    0.2276E-22
  50677.322    0.1902E-22
  50677.382    0.2050E-22
  50677.441    0.1900E-22
  50677.500    0.2123E-22
  50677.560    0.2271E-22
  50677.619    0.2196E-22
  50677.678    0.1672E-22
  50677.737    0.1374E-22
  50677.797    0.1373E-22
  50677.856    0.8533E-23
  50677.915    0.4279E-24
  50677.975    0.4090E-23
  50678.034    0.9981E-23
  50678.093    0.1963E-22
  50678.153    0.2712E-22
  50678.212    0.2111E-22
  50678.271    0.2334E-22
  50678.330    0.3161E-22
  50678.390    0.3538E-22
  50678.449    0.2933E-22
  50678.508    0.2106E-22
  50678.568    0.1286E-22
  50678.627    0.1210E-22
  50678.686    0.1432E-22
  50678.746    0.1729E-22
  50678.805    0.2251E-22
  50678.864    0.3001E-22
  50678.924    0.3530E-22
  50678.983    0.3529E-22
  50679.042    0.2772E-22
  50679.101    0.2021E-22
  50679.161    0.1871E-22
  50679.220    0.2544E-22
  50679.279    0.3372E-22
  50679.339    0.4360E-22
  50679.398    0.5049E-22
  50679.457    0.5665E-22
  50679.517    0.6052E-22
  50679.576    0.6051E-22
  50679.635    0.6206E-22
  50679.695    0.5739E-22
  50679.754    0.5351E-22
  50679.813    0.5119E-22
  50679.872    0.4964E-22
  50679.932    0.4810E-22
  50679.991    0.4502E-22
  50680.050    0.4043E-22
  50680.110    0.3586E-22
  50680.169    0.3206E-22
  50680.228    0.3205E-22
  50680.288    0.3204E-22
  50680.347    0.3354E-22
  50680.406    0.3732E-22
  50680.466    0.3960E-22
  50680.525    0.4035E-22
  50680.584    0.4339E-22
  50680.644    0.4415E-22
  50680.703    0.4950E-22
  50680.762    0.5412E-22
  50680.821    0.5256E-22
  50680.881    0.4871E-22
  50680.940    0.4946E-22
  50680.999    0.5022E-22
  50681.059    0.4944E-22
  50681.118    0.5329E-22
  50681.177    0.5405E-22
  50681.237    0.6257E-22
  50681.296    0.7273E-22
  50681.355    0.7824E-22
  50681.415    0.9015E-22
  50681.474    0.1006E-21
  50681.533    0.1022E-21
  50681.593    0.1014E-21
  50681.652    0.9895E-22
  50681.711    0.9974E-22
  50681.770    0.1013E-21
  50681.830    0.9329E-22
  50681.889    0.9328E-22
  50681.948    0.1021E-21
  50682.008    0.1184E-21
  50682.067    0.1333E-21
  50682.126    0.1450E-21
  50682.186    0.1620E-21
  50682.245    0.1758E-21
  50682.304    0.1863E-21
  50682.364    0.1986E-21
  50682.423    0.2147E-21
  50682.482    0.2394E-21
  50682.542    0.2627E-21
  50682.601    0.2972E-21
  50682.660    0.3431E-21
  50682.720    0.3965E-21
  50682.779    0.4441E-21
  50682.838    0.5217E-21
  50682.897    0.6457E-21
  50682.957    0.7620E-21
  50683.016    0.8917E-21
  50683.075    0.1027E-20
  50683.135    0.1166E-20
  50683.194    0.1304E-20
  50683.253    0.1410E-20
  50683.313    0.1475E-20
  50683.372    0.1490E-20
  50683.431    0.1459E-20
  50683.491    0.1397E-20
  50683.550    0.1313E-20
  50683.609    0.1211E-20
  50683.669    0.1083E-20
  50683.728    0.9639E-21
  50683.787    0.8593E-21
  50683.847    0.7638E-21
  50683.906    0.6697E-21
  50683.965    0.5824E-21
  50684.025    0.5113E-21
  50684.084    0.4520E-21
  50684.143    0.4043E-21
  50684.203    0.3697E-21
  50684.262    0.3277E-21
  50684.321    0.2882E-21
  50684.380    0.2558E-21
  50684.440    0.2353E-21
  50684.499    0.2198E-21
  50684.558    0.2099E-21
  50684.618    0.1956E-21
  50684.677    0.1876E-21
  50684.736    0.1850E-21
  50684.796    0.1850E-21
  50684.855    0.1859E-21
  50684.914    0.1815E-21
  50684.974    0.1806E-21
  50685.033    0.1745E-21
  50685.092    0.1727E-21
  50685.152    0.1753E-21
  50685.211    0.1779E-21
  50685.270    0.1771E-21
  50685.330    0.1753E-21
  50685.389    0.1718E-21
  50685.448    0.1701E-21
  50685.508    0.1623E-21
  50685.567    0.1606E-21
  50685.626    0.1666E-21
  50685.686    0.1649E-21
  50685.745    0.1718E-21
  50685.804    0.1822E-21
  50685.864    0.1980E-21
  50685.923    0.2287E-21
  50685.982    0.2621E-21
  50686.042    0.2967E-21
  50686.101    0.3395E-21
  50686.160    0.3842E-21
  50686.220    0.4442E-21
  50686.279    0.5220E-21
  50686.338    0.6488E-21
  50686.398    0.7567E-21
  50686.457    0.8732E-21
  50686.516    0.9861E-21
  50686.576    0.1077E-20
  50686.635    0.1139E-20
  50686.694    0.1156E-20
  50686.754    0.1138E-20
  50686.813    0.1091E-20
  50686.872    0.1032E-20
  50686.932    0.9657E-21
  50686.991    0.9014E-21
  50687.050    0.8393E-21
  50687.109    0.7767E-21
  50687.169    0.7131E-21
  50687.228    0.6518E-21
  50687.287    0.5984E-21
  50687.347    0.5403E-21
  50687.406    0.4844E-21
  50687.465    0.4381E-21
  50687.525    0.3987E-21
  50687.584    0.3744E-21
  50687.643    0.3352E-21
  50687.703    0.2944E-21
  50687.762    0.2675E-21
  50687.821    0.2422E-21
  50687.881    0.2138E-21
  50687.940    0.1906E-21
  50687.999    0.1749E-21
  50688.059    0.1576E-21
  50688.118    0.1483E-21
  50688.177    0.1466E-21
  50688.237    0.1398E-21
  50688.296    0.1323E-21
  50688.355    0.1190E-21
  50688.415    0.1035E-21
  50688.474    0.9298E-22
  50688.533    0.8417E-22
  50688.593    0.8496E-22
  50688.652    0.9054E-22
  50688.711    0.8733E-22
  50688.771    0.8175E-22
  50688.830    0.7462E-22
  50688.889    0.6519E-22
  50688.949    0.5197E-22
  50689.008    0.4351E-22
  50689.067    0.4580E-22
  50689.127    0.4886E-22
  50689.186    0.4962E-22
  50689.245    0.5734E-22
  50689.305    0.6199E-22
  50689.364    0.6198E-22
  50689.424    0.6901E-22
  50689.483    0.7846E-22
  50689.542    0.7845E-22
  50689.602    0.7607E-22
  50689.661    0.6819E-22
  50689.720    0.5804E-22
  50689.780    0.5338E-22
  50689.839    0.4337E-22
  50689.898    0.3573E-22
  50689.958    0.3496E-22
  50690.017    0.3800E-22
  50690.076    0.4410E-22
  50690.136    0.4409E-22
  50690.195    0.4025E-22
  50690.254    0.3720E-22
  50690.314    0.2659E-22
  50690.373    0.1758E-22
  50690.432    0.1757E-22
  50690.492    0.2505E-22
  50690.551    0.3335E-22
  50690.610    0.3866E-22
  50690.670    0.3789E-22
  50690.729    0.3560E-22
  50690.788    0.3255E-22
  50690.848    0.2574E-22
  50690.907    0.2048E-22
  50690.966    0.2572E-22
  50691.026    0.2647E-22
  50691.085    0.2947E-22
  50691.144    0.3553E-22
  50691.204    0.4161E-22
  50691.263    0.3931E-22
  50691.322    0.3702E-22
  50691.382    0.3777E-22
  50691.441    0.4310E-22
  50691.500    0.4462E-22
  50691.560    0.4385E-22
  50691.619    0.4767E-22
  50691.678    0.4920E-22
  50691.738    0.4382E-22
  50691.797    0.3770E-22
  50691.856    0.3921E-22
  50691.916    0.3768E-22
  50691.975    0.3159E-22
  50692.035    0.3007E-22
  50692.094    0.2328E-22
  50692.153    0.1653E-22
  50692.213    0.1429E-22
  50692.272    0.9818E-23
  50692.331    0.1427E-22
  50692.391    0.2023E-22
  50692.450    0.2322E-22
  50692.509    0.2999E-22
  50692.569    0.3605E-22
  50692.628    0.3832E-22
  50692.687    0.3984E-22
  50692.747    0.4135E-22
  50692.806    0.3449E-22
  50692.865    0.2842E-22
  50692.925    0.2464E-22
  50692.984    0.2163E-22
  50693.043    0.2312E-22
  50693.103    0.2612E-22
  50693.162    0.2385E-22
  50693.221    0.2685E-22
  50693.281    0.3365E-22
  50693.340    0.3820E-22
  50693.399    0.4431E-22
  50693.459    0.4891E-22
  50693.518    0.5585E-22
  50693.578    0.6206E-22
  50693.637    0.6049E-22
  50693.696    0.5350E-22
  50693.756    0.5040E-22
  50693.815    0.5193E-22
  50693.874    0.5424E-22
  50693.934    0.6200E-22
  50693.993    0.6982E-22
  50694.052    0.6981E-22
  50694.112    0.6353E-22
  50694.171    0.5807E-22
  50694.230    0.4801E-22
  50694.290    0.4569E-22
  50694.349    0.4415E-22
  50694.408    0.4107E-22
  50694.468    0.3573E-22
  50694.527    0.3572E-22
  50694.586    0.3343E-22
  50694.646    0.3646E-22
  50694.705    0.4793E-22
  50694.765    0.5874E-22
  50694.824    0.5718E-22
  50694.883    0.5252E-22
  50694.943    0.4866E-22
  50695.002    0.3640E-22
  50695.061    0.3108E-22
  50695.121    0.4249E-22
  50695.180    0.5247E-22
  50695.239    0.5634E-22
  50695.299    0.6099E-22
  50695.358    0.6176E-22
  50695.417    0.5553E-22
  50695.477    0.4857E-22
  50695.536    0.3783E-22
  50695.595    0.2570E-22
  50695.655    0.1819E-22
  50695.714    0.2117E-22
  50695.774    0.2869E-22
  50695.833    0.3626E-22
  50695.892    0.4850E-22
  50695.952    0.6166E-22
  50696.011    0.7816E-22
  50696.070    0.9572E-22
  50696.130    0.1062E-21
  50696.189    0.1119E-21
  50696.248    0.1160E-21
  50696.308    0.1201E-21
  50696.367    0.1210E-21
  50696.426    0.1226E-21
  50696.486    0.1201E-21
  50696.545    0.1201E-21
  50696.605    0.1184E-21
  50696.664    0.1234E-21
  50696.723    0.1284E-21
  50696.783    0.1384E-21
  50696.842    0.1460E-21
  50696.901    0.1536E-21
  50696.961    0.1656E-21
  50697.020    0.1656E-21
  50697.079    0.1595E-21
  50697.139    0.1647E-21
  50697.198    0.1768E-21
  50697.258    0.1988E-21
  50697.317    0.2231E-21
  50697.376    0.2583E-21
  50697.436    0.2909E-21
  50697.495    0.3305E-21
  50697.554    0.3759E-21
  50697.614    0.4181E-21
  50697.673    0.4813E-21
  50697.732    0.5565E-21
  50697.792    0.6448E-21
  50697.851    0.7503E-21
  50697.910    0.8730E-21
  50697.970    0.1016E-20
  50698.029    0.1160E-20
  50698.089    0.1275E-20
  50698.148    0.1357E-20
  50698.207    0.1394E-20
  50698.267    0.1395E-20
  50698.326    0.1360E-20
  50698.385    0.1302E-20
  50698.445    0.1225E-20
  50698.504    0.1132E-20
  50698.563    0.1031E-20
  50698.623    0.9307E-21
  50698.682    0.8370E-21
  50698.742    0.7489E-21
  50698.801    0.6634E-21
  50698.860    0.5965E-21
  50698.920    0.5415E-21
  50698.979    0.4935E-21
  50699.038    0.4539E-21
  50699.098    0.4187E-21
  50699.157    0.3899E-21
  50699.216    0.3589E-21
  50699.276    0.3332E-21
  50699.335    0.3151E-21
  50699.395    0.3032E-21
  50699.454    0.2954E-21
  50699.513    0.2895E-21
  50699.573    0.2944E-21
  50699.632    0.3121E-21
  50699.691    0.3321E-21
  50699.751    0.3505E-21
  50699.810    0.3734E-21
  50699.870    0.3958E-21
  50699.929    0.4176E-21
  50699.988    0.4576E-21
  50700.048    0.5110E-21
  50700.107    0.5859E-21
  50700.166    0.6968E-21
  50700.226    0.8141E-21
  50700.285    0.9420E-21
  50700.344    0.1074E-20
  50700.404    0.1219E-20
  50700.463    0.1372E-20
  50700.523    0.1523E-20
  50700.582    0.1650E-20
  50700.641    0.1738E-20
  50700.701    0.1769E-20
  50700.760    0.1732E-20
  50700.819    0.1651E-20
  50700.879    0.1555E-20
  50700.938    0.1453E-20
  50700.998    0.1355E-20
  50701.057    0.1257E-20
  50701.116    0.1161E-20
  50701.176    0.1056E-20
  50701.235    0.9444E-21
  50701.294    0.8316E-21
  50701.354    0.7267E-21
  50701.413    0.6364E-21
  50701.472    0.5662E-21
  50701.532    0.5014E-21
  50701.591    0.4368E-21
  50701.651    0.4085E-21
  50701.710    0.3637E-21
  50701.769    0.3267E-21
  50701.829    0.2911E-21
  50701.888    0.2642E-21
  50701.947    0.2379E-21
  50702.007    0.2078E-21
  50702.066    0.1883E-21
  50702.126    0.1656E-21
  50702.185    0.1467E-21
  50702.244    0.1425E-21
  50702.304    0.1425E-21
  50702.363    0.1358E-21
  50702.422    0.1291E-21
  50702.482    0.1307E-21
  50702.541    0.1307E-21
  50702.601    0.1257E-21
  50702.660    0.1257E-21
  50702.719    0.1257E-21
  50702.779    0.1240E-21
  50702.838    0.1166E-21
  50702.897    0.1084E-21
  50702.957    0.1075E-21
  50703.016    0.1075E-21
  50703.076    0.1010E-21
  50703.135    0.8972E-22
  50703.194    0.8251E-22
  50703.254    0.7853E-22
  50703.313    0.7140E-22
  50703.372    0.7218E-22
  50703.432    0.7533E-22
  50703.491    0.7690E-22
  50703.551    0.8166E-22
  50703.610    0.8723E-22
  50703.669    0.8243E-22
  50703.729    0.7765E-22
  50703.788    0.7290E-22
  50703.848    0.6974E-22
  50703.907    0.6973E-22
  50703.966    0.6736E-22
  50704.026    0.6343E-22
  50704.085    0.5874E-22
  50704.144    0.5329E-22
  50704.204    0.5561E-22
  50704.263    0.6809E-22
  50704.323    0.7914E-22
  50704.382    0.7993E-22
  50704.441    0.8151E-22
  50704.501    0.7752E-22
  50704.560    0.6804E-22
  50704.619    0.5787E-22
  50704.679    0.4625E-22
  50704.738    0.4471E-22
  50704.798    0.4932E-22
  50704.857    0.5240E-22
  50704.916    0.5471E-22
  50704.976    0.6171E-22
  50705.035    0.7269E-22
  50705.095    0.8219E-22
  50705.154    0.8458E-22
  50705.213    0.8457E-22
  50705.273    0.8057E-22
  50705.332    0.7977E-22
  50705.391    0.8135E-22
  50705.451    0.8213E-22
  50705.510    0.8771E-22
  50705.570    0.9494E-22
  50705.629    0.1006E-21
  50705.688    0.1063E-21
  50705.748    0.1153E-21
  50705.807    0.1260E-21
  50705.867    0.1385E-21
  50705.926    0.1512E-21
  50705.985    0.1623E-21
  50706.045    0.1701E-21
  50706.104    0.1779E-21
  50706.163    0.1840E-21
  50706.223    0.1805E-21
  50706.282    0.1753E-21
  50706.342    0.1657E-21
  50706.401    0.1511E-21
  50706.460    0.1418E-21
  50706.520    0.1309E-21
  50706.579    0.1209E-21
  50706.639    0.1176E-21
  50706.698    0.1184E-21
  50706.757    0.1267E-21
  50706.817    0.1333E-21
  50706.876    0.1392E-21
  50706.935    0.1443E-21
  50706.995    0.1426E-21
  50707.054    0.1459E-21
  50707.114    0.1578E-21
  50707.173    0.1769E-21
  50707.232    0.2007E-21
  50707.292    0.2205E-21
  50707.351    0.2407E-21
  50707.411    0.2651E-21
  50707.470    0.3058E-21
  50707.529    0.3513E-21
  50707.589    0.4015E-21
  50707.648    0.4508E-21
  50707.708    0.5021E-21
  50707.767    0.5451E-21
  50707.826    0.5818E-21
  50707.886    0.6345E-21
  50707.945    0.6432E-21
  50708.004    0.6344E-21
  50708.064    0.6175E-21
  50708.123    0.5739E-21
  50708.183    0.5498E-21
  50708.242    0.5227E-21
  50708.301    0.5046E-21
  50708.361    0.4906E-21
  50708.420    0.4881E-21
  50708.480    0.4999E-21
  50708.539    0.5233E-21
  50708.598    0.5576E-21
  50708.658    0.6100E-21
  50708.717    0.6692E-21
  50708.777    0.7682E-21
  50708.836    0.8915E-21
  50708.895    0.1030E-20
  50708.955    0.1190E-20
  50709.014    0.1371E-20
  50709.074    0.1550E-20
  50709.133    0.1706E-20
  50709.192    0.1810E-20
  50709.252    0.1858E-20
  50709.311    0.1853E-20
  50709.371    0.1805E-20
  50709.430    0.1722E-20
  50709.489    0.1626E-20
  50709.549    0.1530E-20
  50709.608    0.1430E-20
  50709.668    0.1340E-20
  50709.727    0.1254E-20
  50709.786    0.1168E-20
  50709.846    0.1078E-20
  50709.905    0.9873E-21
  50709.964    0.9115E-21
  50710.024    0.8318E-21
  50710.083    0.7486E-21
  50710.143    0.6657E-21
  50710.202    0.5964E-21
  50710.261    0.5377E-21
  50710.321    0.4847E-21
  50710.380    0.4382E-21
  50710.440    0.4069E-21
  50710.499    0.3923E-21
  50710.558    0.3854E-21
  50710.618    0.3897E-21
  50710.677    0.3913E-21
  50710.737    0.4069E-21
  50710.796    0.4262E-21
  50710.855    0.4408E-21
  50710.915    0.4491E-21
  50710.974    0.4524E-21
  50711.034    0.4493E-21
  50711.093    0.4362E-21
  50711.152    0.4146E-21
  50711.212    0.4145E-21
  50711.271    0.3832E-21
  50711.331    0.3589E-21
  50711.390    0.3404E-21
  50711.449    0.3211E-21
  50711.509    0.3052E-21
  50711.568    0.2914E-21
  50711.628    0.2721E-21
  50711.687    0.2597E-21
  50711.746    0.2644E-21
  50711.806    0.2788E-21
  50711.865    0.3041E-21
  50711.925    0.3433E-21
  50711.984    0.3895E-21
  50712.043    0.4183E-21
  50712.103    0.4701E-21
  50712.162    0.5313E-21
  50712.222    0.6231E-21
  50712.281    0.7195E-21
  50712.341    0.8272E-21
  50712.400    0.9410E-21
  50712.459    0.1039E-20
  50712.519    0.1107E-20
  50712.578    0.1121E-20
  50712.638    0.1087E-20
  50712.697    0.1011E-20
  50712.756    0.9141E-21
  50712.816    0.8125E-21
  50712.875    0.7082E-21
  50712.935    0.6081E-21
  50712.994    0.5237E-21
  50713.053    0.4438E-21
  50713.113    0.3670E-21
  50713.172    0.3138E-21
  50713.232    0.2680E-21
  50713.291    0.2268E-21
  50713.350    0.1943E-21
  50713.410    0.1802E-21
  50713.469    0.1697E-21
  50713.529    0.1593E-21
  50713.588    0.1550E-21
  50713.647    0.1448E-21
  50713.707    0.1288E-21
  50713.766    0.1180E-21
  50713.826    0.1123E-21
  50713.885    0.1147E-21
  50713.944    0.1221E-21
  50714.004    0.1221E-21
  50714.063    0.1254E-21
  50714.123    0.1321E-21
  50714.182    0.1405E-21
  50714.242    0.1473E-21
  50714.301    0.1541E-21
  50714.360    0.1635E-21
  50714.420    0.1756E-21
  50714.479    0.1844E-21
  50714.539    0.1862E-21
  50714.598    0.1879E-21
  50714.657    0.1861E-21
  50714.717    0.1747E-21
  50714.776    0.1669E-21
  50714.836    0.1652E-21
  50714.895    0.1608E-21
  50714.954    0.1480E-21
  50715.014    0.1353E-21
  50715.073    0.1244E-21
  50715.133    0.1170E-21
  50715.192    0.1088E-21
  50715.252    0.9735E-22
  50715.311    0.9169E-22
  50715.370    0.8126E-22
  50715.430    0.7094E-22
  50715.489    0.6621E-22
  50715.549    0.5993E-22
  50715.608    0.5447E-22
  50715.667    0.5213E-22
  50715.727    0.5057E-22
  50715.786    0.4901E-22
  50715.846    0.5055E-22
  50715.905    0.5364E-22
  50715.964    0.5131E-22
  50716.024    0.4358E-22
  50716.083    0.3210E-22
  50716.143    0.2150E-22
  50716.202    0.1848E-22
  50716.262    0.1547E-22
  50716.321    0.2222E-22
  50716.380    0.2523E-22
  50716.440    0.3128E-22
  50716.499    0.3508E-22
  50716.559    0.3278E-22
  50716.618    0.2973E-22
  50716.677    0.3428E-22
  50716.737    0.3275E-22
  50716.796    0.3350E-22
  50716.856    0.2666E-22
  50716.915    0.1986E-22
  50716.975    0.2061E-22
  50717.034    0.1834E-22
  50717.093    0.2284E-22
  50717.153    0.2964E-22
  50717.212    0.3267E-22
  50717.272    0.3114E-22
  50717.331    0.2507E-22
  50717.390    0.1603E-22
  50717.450    0.1827E-22
  50717.509    0.2428E-22
  50717.569    0.3185E-22
  50717.628    0.3260E-22
  50717.688    0.2652E-22
  50717.747    0.1972E-22
  50717.806    0.1746E-22
  50717.866    0.1820E-22
  50717.925    0.1819E-22
  50717.985    0.2194E-22
  50718.044    0.2344E-22
  50718.103    0.1891E-22
  50718.163    0.1515E-22
  50718.222    0.1440E-22
  50718.282    0.1888E-22
  50718.341    0.1887E-22
  50718.401    0.2413E-22
  50718.460    0.2790E-22
  50718.519    0.2714E-22
  50718.579    0.2788E-22
  50718.638    0.2258E-22
  50718.698    0.1956E-22
  50718.757    0.2181E-22
  50718.817    0.2482E-22
  50718.876    0.2405E-22
  50718.935    0.2858E-22
  50718.995    0.3085E-22
  50719.054    0.2856E-22
  50719.114    0.2855E-22
  50719.173    0.3158E-22
  50719.233    0.2929E-22
  50719.292    0.2022E-22
  50719.351    0.8985E-23
  50719.411    0.3780E-23
  50719.470    0.1269E-22
  50719.530    0.2018E-22
  50719.589    0.2393E-22
  50719.648    0.2166E-22
  50719.708    0.1639E-22
  50719.767    0.1713E-22
  50719.827    0.2389E-22
  50719.886    0.2539E-22
  50719.946    0.2841E-22
  50720.005    0.2689E-22
  50720.064    0.2159E-22
  50720.124    0.1782E-22
  50720.183    0.1407E-22
  50720.243    0.1256E-22
  50720.302    0.2155E-22
  50720.362    0.2079E-22
  50720.421    0.1852E-22
  50720.480    0.2077E-22
  50720.540    0.2453E-22
  50720.599    0.2603E-22
  50720.659    0.3133E-22
  50720.718    0.3513E-22
  50720.778    0.3131E-22
  50720.837    0.2902E-22
  50720.896    0.2825E-22
  50720.956    0.2446E-22
  50721.015    0.1542E-22
  50721.075    0.1317E-22
  50721.134    0.1540E-22
  50721.194    0.1764E-22
  50721.253    0.1989E-22
  50721.312    0.2063E-22
  50721.372    0.1761E-22
  50721.431    0.1685E-22
  50721.491    0.1684E-22
  50721.550    0.1758E-22
  50721.610    0.1532E-22
  50721.669    0.9339E-23
  50721.728    0.5613E-23
  50721.788    0.8575E-23
  50721.847    0.1379E-22
  50721.907    0.1527E-22
  50721.966    0.9290E-23
  50722.026    0.9280E-23
  50722.085    0.1225E-22
  50722.145    0.1075E-22
  50722.204    0.1522E-22
  50722.263    0.2047E-22
  50722.323    0.2121E-22
  50722.382    0.2045E-22
  50722.442    0.1969E-22
  50722.501    0.1442E-22
  50722.561    0.1441E-22
  50722.620    0.1291E-22
  50722.679    0.7681E-23
  50722.739    0.5443E-23
  50722.798    0.6175E-23
  50722.858    0.3940E-23
  50722.917    0.3190E-23
  50722.977    0.5403E-23
  50723.036    0.9110E-23
  50723.095    0.1358E-22
  50723.155    0.1133E-22
  50723.214    0.5363E-23
  50723.274    0.1650E-23
  50723.333    0.2380E-23
  50723.393    0.9050E-23
  50723.452    0.2253E-22
  50723.511    0.3009E-22
  50723.571    0.3008E-22
  50723.630    0.3007E-22
  50723.690    0.2627E-22
  50723.749    0.3005E-22
  50723.809    0.2625E-22
  50723.868    0.2020E-22
  50723.928    0.1568E-22
  50723.987    0.1417E-22
  50724.046    0.1416E-22
  50724.106    0.1565E-22
  50724.165    0.2166E-22
  50724.225    0.2618E-22
  50724.284    0.2920E-22
  50724.344    0.3376E-22
  50724.403    0.3527E-22
  50724.463    0.3069E-22
  50724.522    0.2537E-22
  50724.581    0.2234E-22
  50724.641    0.1932E-22
  50724.700    0.1256E-22
  50724.760    0.7331E-23
  50724.819    0.7321E-23
  50724.879    0.8055E-23
  50724.938    0.7301E-23
  50724.997    0.1360E-23
  50725.057   -0.4547E-23
  50725.116   -0.6026E-23
  50725.176   -0.5302E-23
  50725.235    0.1320E-23
  50725.295    0.5755E-23
  50725.354    0.4262E-23
  50725.414    0.6478E-23
  50725.473    0.1094E-22
  50725.532    0.1541E-22
  50725.592    0.1316E-22
  50725.651    0.6438E-23
  50725.711    0.1240E-23
  50725.770    0.1970E-23
  50725.830    0.2700E-23
  50725.889    0.1087E-22
  50725.949    0.1384E-22
  50726.008    0.1309E-22
  50726.067    0.1233E-22
  50726.127    0.6358E-23
  50726.186    0.8579E-23
  50726.246    0.1454E-22
  50726.305    0.1904E-22
  50726.365    0.2582E-22
  50726.424    0.2657E-22
  50726.484    0.2883E-22
  50726.543    0.2730E-22
  50726.602    0.2653E-22
  50726.662    0.3413E-22
  50726.721    0.3565E-22
  50726.781    0.2878E-22
  50726.840    0.1970E-22
  50726.900    0.6971E-23
  50726.959   -0.2660E-23
  50727.019   -0.4877E-23
  50727.078   -0.4152E-23
  50727.137   -0.4774E-24
  50727.197    0.6921E-23
  50727.256    0.9144E-23
  50727.316    0.1137E-22
  50727.375    0.1735E-22
  50727.435    0.1809E-22
  50727.494    0.1658E-22
  50727.554    0.1807E-22
  50727.613    0.9084E-23
  50727.672    0.1057E-22
  50727.732    0.1880E-22
  50727.791    0.2482E-22
  50727.851    0.2708E-22
  50727.910    0.2329E-22
  50727.970    0.1425E-22
  50728.029    0.8500E-24
  50728.089    0.1010E-24
  50728.148    0.2310E-23
  50728.208    0.6008E-23
  50728.267    0.8229E-23
  50728.326    0.1794E-22
  50728.386    0.2548E-22
  50728.445    0.2622E-22
  50728.505    0.3306E-22
  50728.564    0.3000E-22
  50728.624    0.2166E-22
  50728.683    0.1264E-22
  50728.743    0.8894E-23
  50728.802    0.6651E-23
  50728.861    0.5155E-23
  50728.921    0.5888E-23
  50728.980    0.2170E-23
  50729.040   -0.6687E-23
  50729.099   -0.6697E-23
  50729.159   -0.4502E-23
  50729.218    0.6499E-24
  50729.278   -0.8376E-24
  50729.337    0.6299E-24
  50729.397    0.2099E-23
  50729.456    0.7285E-23
  50729.515    0.1250E-22
  50729.575    0.1698E-22
  50729.634    0.2149E-22
  50729.694    0.2450E-22
  50729.753    0.2600E-22
  50729.813    0.2070E-22
  50729.872    0.1844E-22
  50729.932    0.1392E-22
  50729.991    0.1167E-22
  50730.051    0.9419E-23
  50730.110    0.2720E-23
  50730.169    0.1229E-23
  50730.229    0.4925E-23
  50730.288    0.1087E-22
  50730.348    0.1236E-22
  50730.407    0.1160E-22
  50730.467    0.4143E-23
  50730.526   -0.2523E-23
  50730.586    0.1899E-23
  50730.645    0.5598E-23
  50730.705    0.1006E-22
  50730.764    0.1154E-22
  50730.823    0.1302E-22
  50730.883    0.1827E-22
  50730.942    0.2656E-22
  50731.002    0.3035E-22
  50731.061    0.3263E-22
  50731.121    0.3262E-22
  50731.180    0.3108E-22
  50731.240    0.2424E-22
  50731.299    0.1070E-22
  50731.359   -0.4495E-24
  50731.418   -0.2673E-23
  50731.478   -0.1946E-23
  50731.537    0.2480E-23
  50731.596    0.5437E-23
  50731.656    0.1139E-22
  50731.715    0.1888E-22
  50731.775    0.2037E-22
  50731.834    0.1886E-22
  50731.894    0.1434E-22
  50731.953    0.4635E-23
  50732.013   -0.3511E-23
  50732.072   -0.5728E-23
  50732.132   -0.4267E-23
  50732.191    0.1493E-24
  50732.251    0.9049E-23
  50732.310    0.1352E-22
  50732.369    0.1351E-22
  50732.429    0.1500E-22
  50732.488    0.1574E-22
  50732.548    0.1648E-22
  50732.607    0.1647E-22
  50732.667    0.1346E-22
  50732.726    0.1495E-22
  50732.786    0.1569E-22
  50732.845    0.1643E-22
  50732.905    0.1567E-22
  50732.964    0.8183E-23
  50733.024    0.7487E-24
  50733.083   -0.2216E-23
  50733.142   -0.1104E-22
  50733.202   -0.2124E-22
  50733.261   -0.2053E-22
  50733.321   -0.1763E-22
  50733.380   -0.8151E-23
  50733.440    0.1419E-23
  50733.499    0.9584E-23
  50733.559    0.1107E-22
  50733.618    0.5097E-23
  50733.678    0.1379E-23
  50733.737    0.2109E-23
  50733.797    0.5067E-23
  50733.856    0.7288E-23
  50733.916    0.8023E-23
  50733.975    0.2810E-23
  50734.034   -0.1611E-24
  50734.094   -0.3861E-23
  50734.153   -0.1659E-23
  50734.213    0.2770E-23
  50734.272    0.4244E-23
  50734.332    0.7208E-23
  50734.391    0.9434E-23
  50734.451    0.7933E-23
  50734.510    0.2720E-23
  50734.570   -0.4678E-23
  50734.629   -0.3951E-23
  50734.689   -0.5433E-23
  50734.748   -0.2814E-24
  50734.808    0.4897E-23
  50734.867    0.4144E-23
  50734.926    0.1909E-23
  50734.986   -0.3214E-24
  50735.045    0.4081E-24
  50735.105    0.4104E-23
  50735.164    0.1379E-22
  50735.224    0.2357E-22
  50735.283    0.2659E-22
  50735.343    0.2962E-22
  50735.402    0.3342E-22
  50735.462    0.3265E-22
  50735.521    0.1899E-22
  50735.581    0.9234E-23
  50735.640    0.4014E-23
  50735.700    0.1038E-23
  50735.759    0.3251E-23
  50735.819    0.8448E-23
  50735.878    0.1217E-22
  50735.937    0.2043E-22
  50735.997    0.2268E-22
  50736.056    0.1965E-22
  50736.116    0.1588E-22
  50736.175    0.1437E-22
  50736.235    0.1361E-22
  50736.294    0.1360E-22
  50736.354    0.1060E-22
  50736.413    0.1133E-22
  50736.473    0.9830E-23
  50736.532    0.1638E-23
  50736.592   -0.4282E-23
  50736.651   -0.4292E-23
  50736.711    0.2349E-23
  50736.770    0.6797E-23
  50736.830    0.1052E-22
  50736.889    0.5289E-23
  50736.949   -0.2130E-23
  50737.008   -0.5824E-23
  50737.068   -0.5834E-23
  50737.127   -0.1421E-23
  50737.186    0.7875E-24
  50737.246   -0.2918E-23
  50737.305    0.7674E-24
  50737.365    0.6697E-23
  50737.424    0.9670E-23
  50737.484    0.7422E-23
  50737.543    0.7273E-24
  50737.603   -0.7623E-24
  50737.662    0.1448E-23
  50737.722    0.5149E-23
  50737.781    0.8863E-23
  50737.841    0.8107E-23
  50737.900    0.2891E-23
  50737.960    0.6572E-24
  50738.019   -0.8325E-24
  50738.079   -0.1582E-23
  50738.138   -0.6750E-23
  50738.198   -0.1189E-22
  50738.257   -0.1263E-22
  50738.317   -0.1045E-22
  50738.376   -0.1046E-22
  50738.436   -0.6800E-23
  50738.495   -0.1652E-23
  50738.554   -0.1831E-24
  50738.614   -0.3886E-23
  50738.673   -0.3896E-23
  50738.733    0.4235E-23
  50738.792    0.1019E-22
  50738.852    0.1167E-22
  50738.911    0.1466E-22
  50738.971    0.1465E-22
  50739.030    0.1314E-22
  50739.090    0.1014E-22
  50739.149    0.1013E-22
  50739.209    0.8622E-23
  50739.268    0.4366E-24
  50739.328   -0.5479E-23
  50739.387   -0.4753E-23
  50739.447    0.4115E-23
  50739.506    0.4848E-23
  50739.566    0.7816E-23
  50739.625    0.1079E-22
  50739.685    0.9289E-23
  50739.744    0.3564E-24
  50739.804   -0.1143E-22
  50739.863   -0.1728E-22
  50739.923   -0.2092E-22
  50739.982   -0.2383E-22
  50740.042   -0.1949E-22
  50740.101   -0.1441E-22
  50740.160   -0.1076E-22
  50740.220   -0.4638E-24
  50740.279    0.1007E-23
  50740.339   -0.1223E-23
  50740.398    0.4698E-23
  50740.458    0.1065E-22
  50740.517    0.1439E-22
  50740.577    0.1363E-22
  50740.636    0.1212E-22
  50740.696    0.9118E-23
  50740.755    0.1210E-22
  50740.815    0.1209E-22
  50740.874    0.3874E-23
  50740.934   -0.1324E-23
  50740.993    0.8865E-24
  50741.053    0.1359E-24
  50741.112    0.1258E-24
  50741.172   -0.6243E-24
  50741.231    0.8464E-24
  50741.291    0.6035E-23
  50741.350    0.9008E-23
  50741.410    0.1349E-22
  50741.469    0.1273E-22
  50741.529    0.1347E-22
  50741.588    0.8221E-23
  50741.648    0.3744E-23
  50741.707    0.2554E-25
  50741.767   -0.2942E-23
  50741.826   -0.1474E-23
  50741.886    0.2219E-23
  50741.945    0.8908E-23
  50742.005    0.9645E-23
  50742.064    0.1188E-22
  50742.124    0.1037E-22
  50742.183    0.1111E-22
  50742.243    0.1635E-22
  50742.302    0.2238E-22
  50742.362    0.2768E-22
  50742.421    0.2160E-22
  50742.481    0.1256E-22
  50742.540    0.1105E-22
  50742.600    0.1554E-22
  50742.659    0.1628E-22
  50742.719    0.1627E-22
  50742.778    0.2078E-22
  50742.837    0.2229E-22
  50742.897    0.2303E-22
  50742.956    0.2910E-22
  50743.016    0.2605E-22
  50743.075    0.1621E-22
  50743.135    0.9454E-23
  50743.194    0.7951E-23
  50743.254    0.1168E-22
  50743.313    0.1392E-22
  50743.373    0.1541E-22
  50743.432    0.1390E-22
  50743.492    0.1014E-22
  50743.551    0.7144E-23
  50743.611    0.8627E-23
  50743.670    0.1161E-22
  50743.730    0.1987E-22
  50743.789    0.1835E-22
  50743.849    0.9334E-23
  50743.908    0.4106E-23
  50743.968    0.1868E-23
  50744.027    0.4086E-23
  50744.087    0.5564E-23
  50744.146    0.7790E-23
  50744.206    0.8527E-23
  50744.265    0.7770E-23
  50744.325    0.5524E-23
  50744.384    0.2540E-23
  50744.444    0.5504E-23
  50744.503    0.1222E-22
  50744.563    0.2275E-22
  50744.622    0.3340E-22
  50744.682    0.3798E-22
  50744.741    0.3721E-22
  50744.801    0.3260E-22
  50744.860    0.1441E-22
  50744.920    0.2449E-23
  50744.979   -0.4221E-23
  50745.039   -0.1305E-22
  50745.098   -0.1598E-22
  50745.158   -0.9403E-23
  50745.217   -0.4999E-23
  50745.277   -0.3534E-23
  50745.336   -0.3544E-23
  50745.396   -0.3554E-23
  50745.455   -0.2825E-23
  50745.515   -0.3574E-23
  50745.574   -0.2106E-23
  50745.634    0.8451E-24
  50745.693    0.1577E-23
  50745.753    0.3795E-23
  50745.812    0.5273E-23
  50745.872    0.1199E-22
  50745.931    0.1724E-22
  50745.991    0.1949E-22
  50746.050    0.1797E-22
  50746.110    0.1495E-22
  50746.169    0.1419E-22
  50746.229    0.1869E-22
  50746.288    0.1793E-22
  50746.348    0.1566E-22
  50746.407    0.1942E-22
  50746.467    0.2319E-22
  50746.526    0.2926E-22
  50746.586    0.3383E-22
  50746.645    0.3535E-22
  50746.705    0.3534E-22
  50746.764    0.2617E-22
  50746.824    0.1183E-22
  50746.883   -0.1587E-23
  50746.943   -0.1264E-22
  50747.002   -0.1118E-22
  50747.062   -0.6783E-23
  50747.121   -0.3845E-23
  50747.181    0.3554E-23
  50747.240    0.1101E-22
  50747.300    0.1025E-22
  50747.359    0.8742E-23
  50747.419    0.8732E-23
  50747.478    0.4248E-23
  50747.538    0.2751E-23
  50747.597    0.5139E-24
  50747.657    0.2730E-23
  50747.716    0.1978E-23
  50747.776   -0.3217E-23
  50747.836   -0.6177E-23
  50747.895   -0.7660E-23
  50747.955   -0.1061E-22
  50748.014   -0.1062E-22
  50748.074    0.4336E-24
  50748.133    0.1011E-22
  50748.193    0.1460E-22
  50748.252    0.2062E-22
  50748.312    0.2667E-22
  50748.371    0.2666E-22
  50748.431    0.2894E-22
  50748.490    0.2512E-22
  50748.550    0.1604E-22
  50748.609    0.7784E-23
  50748.669    0.3332E-24
  50748.728   -0.4180E-24
  50748.788    0.4027E-23
  50748.847    0.4017E-23
  50748.907    0.1777E-23
  50748.966    0.2510E-23
  50749.026   -0.2688E-23
  50749.085   -0.7861E-23
  50749.145   -0.7871E-23
  50749.204   -0.4196E-23
  50749.264   -0.5083E-24
  50749.323    0.3193E-23
  50749.383    0.4671E-23
  50749.442   -0.5385E-24
  50749.502   -0.7195E-23
  50749.561   -0.9411E-23
  50749.621   -0.7951E-23
  50749.680   -0.7961E-23
  50749.740   -0.8706E-23
  50749.799   -0.1165E-22
  50749.859   -0.5044E-23
  50749.918    0.6816E-23
  50749.978    0.1204E-22
  50750.037    0.1429E-22
  50750.097    0.1052E-22
  50750.156    0.5285E-23
  50750.216    0.9755E-23
  50750.275    0.1650E-22
  50750.335    0.1951E-22
  50750.394    0.2253E-22
  50750.454    0.2707E-22
  50750.514    0.3470E-22
  50750.573    0.3622E-22
  50750.633    0.2704E-22
  50750.692    0.9675E-23
  50750.752    0.2952E-23
  50750.811   -0.3729E-23
  50750.871   -0.7426E-23
  50750.930   -0.3749E-23
  50750.990   -0.4497E-23
  50751.049   -0.1550E-23
  50751.109    0.8857E-23
  50751.168    0.1560E-22
  50751.228    0.1936E-22
  50751.287    0.2162E-22
  50751.347    0.2312E-22
  50751.406    0.1857E-22
  50751.466    0.1404E-22
  50751.525    0.1103E-22
  50751.585    0.8029E-23
  50751.644    0.2058E-23
  50751.704   -0.6093E-23
  50751.763   -0.8313E-23
  50751.823   -0.1053E-22
  50751.882   -0.7597E-23
  50751.942   -0.1055E-22
  50752.001   -0.2078E-22
  50752.061   -0.1569E-22
  50752.120   -0.7637E-23
  50752.180   -0.7647E-23
  50752.240   -0.1280E-22
  50752.299   -0.1134E-22
  50752.359   -0.3990E-23
  50752.418    0.4421E-24
  50752.478    0.5639E-23
  50752.537    0.5629E-23
  50752.597    0.5619E-23
  50752.656    0.5608E-23
  50752.716    0.6344E-23
  50752.775    0.1082E-22
  50752.835    0.1306E-22
  50752.894    0.1606E-22
  50752.954    0.1907E-22
  50753.013    0.1830E-22
  50753.073    0.1302E-22
  50753.132    0.4783E-23
  50753.192   -0.6344E-23
  50753.251   -0.1077E-22
  50753.311   -0.6365E-23
  50753.370   -0.5637E-23
  50753.430   -0.9329E-23
  50753.489   -0.1520E-22
  50753.549   -0.1667E-22
  50753.609   -0.1156E-22
  50753.668   -0.4949E-23
  50753.728   -0.2002E-23
  50753.787    0.2110E-24
  50753.847    0.3173E-23
  50753.906    0.1909E-24
  50753.966   -0.4261E-23
  50754.025    0.1708E-24
  50754.085    0.4622E-23
  50754.144    0.1636E-23
  50754.204    0.8829E-24
  50754.263    0.8728E-24
  50754.323   -0.3582E-23
  50754.382   -0.1389E-22
  50754.442   -0.2047E-22
  50754.501   -0.2048E-22
  50754.561   -0.1976E-22
  50754.620   -0.1831E-22
  50754.680   -0.1467E-22
  50754.740   -0.8815E-23
  50754.799   -0.9560E-23
  50754.859   -0.1763E-22
  50754.918   -0.2345E-22
  50754.978   -0.2708E-22
  50755.039   -0.2782E-22
